Tempo(s)	Deformação(mm)	Força(N)
 0.016667 	0.00000 	-500.40 
0.51667 	-0.0001068 	-333.60 
1.0167 	0.00000 	0.00000 
1.5167 	0.00010662 	332.91 
2.0167 	0.00010662 	832.28 
2.5167 	0.00031985 	1331.7 
3.0167 	0.00031985 	1664.6 
3.5167 	0.00053309 	2163.9 
4.0167 	0.00063971 	2496.9 
4.4500 	0.00074633 	3162.7 
4.9500 	0.00085294 	3662.0 
5.4500 	0.00095956 	3995.0 
5.9500 	0.0011728 	4327.9 
6.4500 	0.0010662 	4660.8 
6.9500 	0.0011728 	4993.7 
7.4500 	0.0011728 	4993.7 
7.9500 	0.0012794 	5326.6 
8.4500 	0.0012794 	5659.5 
8.9500 	0.0013860 	5992.4 
9.4000 	0.0014927 	6658.3 
9.7333 	0.0015993 	7324.1 
10.050 	0.0017059 	7989.9 
10.483 	0.0018125 	8655.8 
10.967 	0.0019191 	9321.6 
11.350 	0.0020257 	9987.4 
11.767 	0.0022390 	10653 
12.217 	0.0023456 	11319 
12.717 	0.0024522 	11985 
13.217 	0.0025588 	12484 
13.717 	0.0026655 	12984 
14.183 	0.0027721 	13649 
14.683 	0.0028787 	13982 
15.133 	0.0029853 	14648 
15.633 	0.0030919 	15148 
16.133 	0.0030919 	15314 
16.633 	0.0031985 	15813 
17.133 	0.0033052 	16313 
17.633 	0.0035184 	16979 
18.133 	0.0036250 	17478 
18.533 	0.0037316 	18144 
19.033 	0.0039449 	18643 
19.450 	0.0040515 	19309 
19.950 	0.0041581 	19808 
20.450 	0.0042647 	20308 
20.950 	0.0044780 	20807 
21.450 	0.0045846 	21473 
21.950 	0.0047978 	21806 
22.400 	0.0047978 	22472 
22.900 	0.0049044 	22805 
23.400 	0.0050111 	23137 
23.900 	0.0050111 	23137 
24.400 	0.0050111 	23137 
24.900 	0.0050111 	23304 
25.400 	0.0050111 	23304 
25.900 	0.0050111 	23304 
26.400 	0.0050111 	23137 
26.900 	0.0050111 	23304 
27.400 	0.0050111 	23137 
27.900 	0.0050111 	23304 
28.400 	0.0050111 	23304 
28.900 	0.0049044 	23304 
29.400 	0.0050111 	23470 
29.900 	0.0050111 	23304 
30.400 	0.0050111 	23304 
30.900 	0.0050111 	23304 
31.400 	0.0050111 	23304 
31.900 	0.0050111 	23137 
32.400 	0.0050111 	23137 
32.900 	0.0050111 	23470 
33.400 	0.0050111 	23304 
33.900 	0.0050111 	23137 
34.400 	0.0049044 	23137 
34.900 	0.0049044 	23304 
35.400 	0.0049044 	23304 
35.900 	0.0049044 	23304 
36.400 	0.0049044 	23304 
36.900 	0.0049044 	23470 
37.400 	0.0050111 	23304 
37.900 	0.0049044 	23137 
38.400 	0.0049044 	23137 
38.900 	0.0049044 	23304 
39.400 	0.0049044 	23304 
39.900 	0.0049044 	23304 
40.400 	0.0049044 	23304 
40.900 	0.0049044 	23470 
41.400 	0.0049044 	23304 
41.900 	0.0049044 	23304 
42.400 	0.0049044 	23304 
42.900 	0.0049044 	23470 
43.400 	0.0049044 	23470 
43.900 	0.0049044 	23137 
44.400 	0.0049044 	23137 
44.900 	0.0049044 	23304 
45.400 	0.0049044 	23304 
45.900 	0.0049044 	23304 
46.400 	0.0049044 	23304 
46.900 	0.0049044 	23304 
47.400 	0.0049044 	23304 
47.900 	0.0049044 	23304 
48.400 	0.0049044 	23304 
48.900 	0.0049044 	23137 
49.400 	0.0049044 	23304 
49.900 	0.0049044 	23304 
50.400 	0.0049044 	23304 
50.900 	0.0049044 	23470 
51.400 	0.0049044 	23304 
51.900 	0.0049044 	23304 
52.400 	0.0049044 	23304 
52.900 	0.0049044 	23470 
53.400 	0.0049044 	23304 
53.900 	0.0049044 	23304 
54.400 	0.0049044 	23304 
54.900 	0.0049044 	23304 
55.400 	0.0049044 	23304 
55.900 	0.0049044 	23304 
56.400 	0.0049044 	23304 
56.900 	0.0049044 	23304 
57.400 	0.0049044 	23304 
57.900 	0.0049044 	23304 
58.400 	0.0049044 	23304 
58.900 	0.0049044 	23304 
59.400 	0.0047978 	23304 
59.900 	0.0049044 	23470 
60.400 	0.0049044 	23304 
60.900 	0.0049044 	23304 
61.400 	0.0047978 	23137 
61.900 	0.0049044 	23304 
62.400 	0.0049044 	23470 
62.900 	0.0047978 	23137 
63.400 	0.0047978 	23304 
63.900 	0.0047978 	23304 
64.400 	0.0049044 	23470 
64.900 	0.0047978 	23470 
65.400 	0.0047978 	23304 
65.900 	0.0049044 	23137 
66.400 	0.0049044 	23304 
66.900 	0.0047978 	23304 
67.400 	0.0047978 	23304 
67.900 	0.0047978 	23304 
68.400 	0.0047978 	23304 
68.900 	0.0047978 	23304 
69.400 	0.0047978 	23470 
69.900 	0.0047978 	23470 
70.400 	0.0047978 	23137 
70.900 	0.0047978 	23137 
71.400 	0.0047978 	23304 
71.900 	0.0047978 	23304 
72.400 	0.0047978 	23304 
72.900 	0.0049044 	23304 
73.400 	0.0047978 	23470 
73.900 	0.0047978 	23304 
74.400 	0.0047978 	23137 
74.900 	0.0047978 	23304 
75.400 	0.0047978 	23470 
75.900 	0.0047978 	23470 
76.400 	0.0047978 	23304 
76.900 	0.0047978 	23137 
77.400 	0.0047978 	23304 
77.900 	0.0047978 	23470 
78.400 	0.0047978 	23304 
78.900 	0.0047978 	23137 
79.400 	0.0047978 	23137 
79.900 	0.0047978 	23304 
80.400 	0.0047978 	23470 
80.900 	0.0047978 	23470 
81.400 	0.0047978 	23304 
81.900 	0.0047978 	23304 
82.400 	0.0047978 	23304 
82.900 	0.0047978 	23470 
83.400 	0.0047978 	23470 
83.683 	0.0047978 	22805 
84.133 	0.0047978 	22139 
84.633 	0.0047978 	21806 
85.133 	0.0047978 	21306 
85.633 	0.0046912 	20807 
86.133 	0.0045846 	20308 
86.633 	0.0044780 	19808 
87.133 	0.0044780 	19475 
87.633 	0.0043713 	19143 
88.133 	0.0042647 	18477 
88.633 	0.0040515 	18144 
89.133 	0.0039449 	17811 
89.633 	0.0038383 	17312 
90.133 	0.0037316 	16812 
90.633 	0.0035184 	16146 
91.117 	0.0034118 	15480 
91.617 	0.0033052 	14981 
92.067 	0.0030919 	14315 
92.567 	0.0029853 	13982 
93.017 	0.0028787 	13317 
93.517 	0.0027721 	12984 
94.017 	0.0026655 	12484 
94.517 	0.0025588 	11818 
95.017 	0.0024522 	11319 
95.517 	0.0023456 	10820 
96.017 	0.0022390 	10487 
96.450 	0.0021324 	9820.9 
96.950 	0.0020257 	9654.5 
97.150 	0.0019191 	8988.7 
97.650 	0.0019191 	8822.2 
98.050 	0.0018125 	8156.4 
98.550 	0.0017059 	7823.5 
99.050 	0.0015993 	7324.1 
99.517 	0.0015993 	6658.3 
100.02 	0.0014927 	6325.4 
100.52 	0.0013860 	5992.4 
101.02 	0.0013860 	5493.1 
101.52 	0.0012794 	4993.7 
102.02 	0.0011728 	4827.2 
102.52 	0.0010662 	4494.3 
103.02 	0.00095956 	3995.0 
103.52 	0.00085294 	3662.0 
104.02 	0.00085294 	3329.1 
104.52 	0.00085294 	3162.7 
105.02 	0.00085294 	3162.7 
105.52 	0.00085294 	3329.1 
106.02 	0.00074633 	3329.1 
106.52 	0.00074633 	2996.2 
107.02 	0.00074633 	2829.8 
107.52 	0.00063971 	2496.9 
108.02 	0.00063971 	1831.0 
108.52 	0.00053309 	1664.6 
109.02 	0.00053309 	1664.6 
109.52 	0.00042647 	1331.7 
110.02 	0.00042647 	1331.7 
110.52 	0.00042647 	1331.7 
111.02 	0.00042647 	1165.2 
111.52 	0.00042647 	1165.2 
112.02 	0.00042647 	998.74 
112.52 	0.00042647 	1165.2 
113.02 	0.00042647 	1165.2 
113.52 	0.00042647 	1165.2 
114.02 	0.00031985 	1165.2 
114.52 	0.00042647 	1165.2 
115.02 	0.00031985 	1165.2 
115.52 	0.00042647 	1165.2 
116.02 	0.00031985 	1165.2 
116.52 	0.00031985 	1165.2 
117.02 	0.00042647 	1165.2 
117.52 	0.00042647 	1165.2 
118.02 	0.00031985 	1165.2 
118.52 	0.00042647 	1165.2 
119.02 	0.00031985 	1165.2 
119.52 	0.00031985 	1165.2 
120.02 	0.00031985 	1165.2 
120.52 	0.00031985 	1165.2 
121.02 	0.00031985 	1165.2 
121.52 	0.00042647 	1165.2 
122.02 	0.00031985 	1165.2 
122.52 	0.00042647 	1165.2 
123.02 	0.00031985 	1165.2 
123.52 	0.00031985 	1165.2 
124.02 	0.00031985 	1331.7 
124.52 	0.00031985 	1165.2 
125.02 	0.00031985 	1165.2 
125.52 	0.00031985 	1165.2 
126.02 	0.00042647 	1165.2 
126.52 	0.00031985 	1331.7 
127.02 	0.00042647 	1165.2 
127.52 	0.00031985 	1165.2 
128.02 	0.00031985 	998.74 
128.52 	0.00031985 	1165.2 
129.02 	0.00031985 	1331.7 
129.52 	0.00031985 	998.74 
130.02 	0.00042647 	1165.2 
130.52 	0.00031985 	1165.2 
131.02 	0.00031985 	1331.7 
131.52 	0.00031985 	1331.7 
132.02 	0.00031985 	998.74 
132.52 	0.00031985 	1165.2 
133.02 	0.00031985 	1165.2 
133.52 	0.00031985 	1331.7 
134.02 	0.00031985 	1165.2 
134.52 	0.00031985 	1165.2 
135.02 	0.00031985 	1165.2 
135.52 	0.00031985 	1165.2 
136.02 	0.00031985 	1331.7 
136.52 	0.00031985 	1165.2 
137.02 	0.00031985 	1165.2 
137.52 	0.00031985 	1165.2 
138.02 	0.00031985 	1165.2 
138.52 	0.00031985 	1165.2 
139.02 	0.00031985 	1165.2 
139.52 	0.00031985 	1165.2 
140.02 	0.00031985 	1165.2 
140.52 	0.00031985 	1165.2 
141.02 	0.00031985 	1165.2 
141.52 	0.00021324 	1165.2 
142.02 	0.00021324 	1165.2 
142.52 	0.00031985 	1165.2 
143.02 	0.00021324 	1165.2 
143.52 	0.00021324 	1165.2 
144.02 	0.00021324 	1331.7 
144.52 	0.00021324 	1165.2 
145.02 	0.00021324 	1165.2 
145.52 	0.00021324 	1165.2 
146.02 	0.00021324 	1165.2 
146.52 	0.00021324 	1165.2 
147.02 	0.00021324 	1165.2 
147.52 	0.00021324 	998.74 
148.02 	0.00021324 	1165.2 
148.52 	0.00021324 	1165.2 
149.02 	0.00021324 	1165.2 
149.52 	0.00021324 	1165.2 
150.02 	0.00021324 	1165.2 
150.52 	0.00021324 	1165.2 
151.02 	0.00021324 	1331.7 
151.52 	0.00021324 	1165.2 
152.02 	0.00010662 	1165.2 
152.52 	0.00021324 	1165.2 
153.02 	0.00021324 	1165.2 
153.52 	0.00021324 	1331.7 
154.02 	0.00021324 	1331.7 
154.52 	0.00021324 	1165.2 
155.02 	0.00010662 	1165.2 
155.52 	0.00021324 	1165.2 
156.02 	0.00010662 	1165.2 
156.52 	0.00010662 	1165.2 
157.02 	0.00010662 	1165.2 
157.52 	0.00010662 	998.74 
158.02 	0.00010662 	1165.2 
158.52 	0.00010662 	998.74 
159.02 	0.00010662 	1165.2 
159.52 	0.00010662 	1165.2 
160.02 	0.00010662 	1165.2 
160.52 	0.00010662 	1165.2 
161.02 	0.00010662 	1165.2 
161.52 	0.00021324 	1165.2 
162.02 	0.00010662 	1165.2 
162.52 	0.00010662 	998.74 
163.02 	0.00010662 	998.74 
163.52 	0.00010662 	1165.2 
164.02 	0.00010662 	1165.2 
164.52 	0.00021324 	1165.2 
165.02 	0.00010662 	1165.2 
165.52 	0.00010662 	1165.2 
166.02 	0.00010662 	1165.2 
166.52 	0.00021324 	998.74 
167.02 	0.00010662 	1165.2 
167.52 	0.00010662 	1165.2 
168.02 	0.00010662 	1331.7 
168.52 	0.00021324 	1831.0 
169.02 	0.00021324 	2163.9 
169.52 	0.00042647 	2663.3 
170.02 	0.00053309 	3162.7 
170.52 	0.00063971 	3662.0 
171.02 	0.00063971 	3995.0 
171.52 	0.00074633 	4327.9 
172.02 	0.00085294 	4494.3 
172.52 	0.00085294 	4993.7 
173.02 	0.00095956 	5160.2 
173.52 	0.00095956 	5326.6 
174.02 	0.00095956 	5826.0 
174.52 	0.0010662 	5992.4 
175.02 	0.0011728 	6325.4 
175.28 	0.0012794 	6991.2 
175.70 	0.0013860 	7657.0 
176.03 	0.0014927 	8322.8 
176.43 	0.0015993 	8988.7 
176.88 	0.0018125 	9654.5 
177.28 	0.0019191 	10320 
177.65 	0.0020257 	10986 
178.15 	0.0021324 	11319 
178.35 	0.0022390 	11985 
178.85 	0.0023456 	12151 
179.13 	0.0023456 	12817 
179.63 	0.0024522 	13150 
180.07 	0.0025588 	13816 
180.57 	0.0026655 	14149 
180.97 	0.0027721 	14815 
181.47 	0.0028787 	15148 
181.97 	0.0028787 	15480 
182.47 	0.0030919 	15980 
182.97 	0.0031985 	16479 
183.47 	0.0031985 	16979 
183.92 	0.0034118 	17644 
184.40 	0.0035184 	18310 
184.90 	0.0036250 	18810 
185.33 	0.0037316 	19475 
185.83 	0.0038383 	19975 
186.33 	0.0040515 	20474 
186.83 	0.0041581 	20974 
187.28 	0.0042647 	21639 
187.78 	0.0043713 	21972 
188.25 	0.0044780 	22638 
188.75 	0.0045846 	22971 
189.25 	0.0045846 	23137 
189.75 	0.0045846 	23304 
190.25 	0.0046912 	23304 
190.75 	0.0046912 	23137 
191.25 	0.0045846 	23304 
191.75 	0.0045846 	23304 
192.25 	0.0046912 	23304 
192.75 	0.0045846 	23304 
193.25 	0.0045846 	23137 
193.75 	0.0044780 	23304 
194.25 	0.0045846 	23304 
194.75 	0.0045846 	23137 
195.25 	0.0045846 	23304 
195.75 	0.0045846 	23304 
196.25 	0.0045846 	23304 
196.75 	0.0045846 	23470 
197.25 	0.0045846 	23304 
197.75 	0.0045846 	23304 
198.25 	0.0045846 	23137 
198.75 	0.0045846 	23304 
199.25 	0.0045846 	23304 
199.75 	0.0045846 	23304 
200.25 	0.0044780 	23137 
200.75 	0.0045846 	23137 
201.25 	0.0045846 	23304 
201.75 	0.0045846 	23304 
202.25 	0.0045846 	23304 
202.75 	0.0045846 	23304 
203.25 	0.0045846 	23470 
203.75 	0.0044780 	23304 
204.25 	0.0045846 	23137 
204.75 	0.0045846 	23304 
205.25 	0.0044780 	23304 
205.75 	0.0044780 	23304 
206.25 	0.0045846 	23304 
206.75 	0.0045846 	23304 
207.25 	0.0044780 	23470 
207.75 	0.0045846 	23304 
208.25 	0.0045846 	23304 
208.75 	0.0044780 	23137 
209.25 	0.0044780 	23304 
209.75 	0.0044780 	23304 
210.25 	0.0044780 	23470 
210.75 	0.0044780 	23304 
211.25 	0.0045846 	23137 
211.75 	0.0044780 	23304 
212.25 	0.0045846 	23470 
212.75 	0.0045846 	23304 
213.25 	0.0045846 	23304 
213.75 	0.0045846 	23304 
214.25 	0.0045846 	23304 
214.75 	0.0044780 	23304 
215.25 	0.0044780 	23304 
215.75 	0.0044780 	23304 
216.25 	0.0044780 	23304 
216.75 	0.0044780 	23470 
217.25 	0.0044780 	23304 
217.75 	0.0044780 	23304 
218.25 	0.0044780 	23304 
218.75 	0.0044780 	23304 
219.25 	0.0044780 	23470 
219.75 	0.0045846 	23470 
220.25 	0.0045846 	23304 
220.75 	0.0044780 	23304 
221.25 	0.0044780 	23304 
221.75 	0.0044780 	23470 
222.25 	0.0044780 	23470 
222.75 	0.0045846 	23137 
223.25 	0.0044780 	23304 
223.75 	0.0045846 	23304 
224.25 	0.0044780 	23470 
224.75 	0.0044780 	23470 
225.25 	0.0044780 	23137 
225.75 	0.0044780 	23304 
226.25 	0.0044780 	23304 
226.75 	0.0044780 	23470 
227.25 	0.0044780 	23304 
227.75 	0.0044780 	23137 
228.25 	0.0044780 	23137 
228.75 	0.0043713 	23304 
229.25 	0.0044780 	23470 
229.75 	0.0044780 	23470 
230.25 	0.0044780 	23304 
230.75 	0.0044780 	23304 
231.25 	0.0044780 	23304 
231.75 	0.0044780 	23304 
232.25 	0.0044780 	23304 
232.75 	0.0044780 	23304 
233.25 	0.0044780 	23304 
233.75 	0.0044780 	23304 
234.25 	0.0044780 	23304 
234.75 	0.0044780 	23304 
235.25 	0.0044780 	23137 
235.75 	0.0044780 	23304 
236.25 	0.0044780 	23304 
236.75 	0.0044780 	23304 
237.25 	0.0044780 	23304 
237.75 	0.0044780 	23470 
238.25 	0.0044780 	23304 
238.75 	0.0044780 	23304 
239.25 	0.0044780 	23304 
239.75 	0.0044780 	23304 
240.25 	0.0044780 	23304 
240.75 	0.0044780 	23304 
241.25 	0.0044780 	23304 
241.75 	0.0044780 	23304 
242.25 	0.0044780 	23304 
242.75 	0.0044780 	23304 
243.25 	0.0044780 	23304 
243.75 	0.0043713 	23304 
244.25 	0.0044780 	23304 
244.75 	0.0044780 	23304 
245.25 	0.0044780 	23137 
245.75 	0.0044780 	23470 
246.25 	0.0044780 	23470 
246.75 	0.0044780 	23304 
247.25 	0.0044780 	23304 
247.75 	0.0043713 	23304 
248.25 	0.0043713 	23304 
248.75 	0.0043713 	23304 
249.25 	0.0044780 	22805 
249.73 	0.0043713 	22139 
250.23 	0.0043713 	21639 
250.73 	0.0043713 	21306 
251.20 	0.0042647 	20641 
251.70 	0.0042647 	20308 
252.20 	0.0041581 	19808 
252.70 	0.0040515 	19475 
253.20 	0.0039449 	18976 
253.70 	0.0038383 	18643 
254.20 	0.0036250 	18310 
254.70 	0.0036250 	17811 
255.20 	0.0035184 	17478 
255.70 	0.0034118 	16979 
256.05 	0.0033052 	16313 
256.50 	0.0030919 	15647 
257.00 	0.0028787 	15314 
257.38 	0.0027721 	14648 
257.88 	0.0026655 	14315 
258.30 	0.0025588 	13649 
258.80 	0.0024522 	13317 
259.23 	0.0023456 	12651 
259.73 	0.0022390 	12151 
260.23 	0.0021324 	11818 
260.67 	0.0020257 	11153 
261.17 	0.0019191 	10820 
261.67 	0.0018125 	10320 
262.17 	0.0017059 	9987.4 
262.45 	0.0015993 	9321.6 
262.95 	0.0015993 	9155.1 
263.33 	0.0014927 	8489.3 
263.83 	0.0013860 	7989.9 
264.33 	0.0012794 	7657.0 
264.80 	0.0011728 	6991.2 
265.30 	0.0010662 	6658.3 
265.80 	0.0010662 	6158.9 
266.30 	0.00095956 	5659.5 
266.80 	0.00085294 	5493.1 
267.30 	0.00074633 	4993.7 
267.80 	0.00074633 	4660.8 
268.30 	0.00063971 	4161.4 
268.80 	0.00053309 	3828.5 
269.30 	0.00053309 	3495.6 
269.80 	0.00042647 	3162.7 
270.30 	0.00042647 	3162.7 
270.80 	0.00042647 	2996.2 
271.30 	0.00042647 	3329.1 
271.80 	0.00042647 	3329.1 
272.30 	0.00042647 	2996.2 
272.80 	0.00042647 	2663.3 
273.30 	0.00031985 	1997.5 
273.80 	0.00021324 	1831.0 
274.30 	0.00010662 	1664.6 
274.80 	0.00010662 	1498.1 
275.30 	0.00010662 	1498.1 
275.80 	0.00000 	1331.7 
276.30 	0.00010662 	1165.2 
276.80 	0.00000 	1165.2 
277.30 	0.00000 	1165.2 
277.80 	0.00000 	1165.2 
278.30 	-0.0001068 	1165.2 
278.80 	-0.0001068 	998.74 
279.30 	-0.0001068 	1165.2 
279.80 	0.00000 	1165.2 
280.30 	0.00000 	1165.2 
280.80 	0.00000 	1165.2 
281.30 	0.00000 	1165.2 
281.80 	0.00000 	1165.2 
282.30 	-0.0001068 	1165.2 
282.80 	-0.0001068 	1165.2 
283.30 	0.00000 	1165.2 
283.80 	0.00000 	1165.2 
284.30 	-0.0001068 	1331.7 
284.80 	-0.0001068 	1165.2 
285.30 	-0.0001068 	1165.2 
285.80 	-0.0001068 	1165.2 
286.30 	-0.0001068 	1331.7 
286.80 	-0.0001068 	1331.7 
287.30 	-0.0001068 	1165.2 
287.80 	-0.0001068 	1165.2 
288.30 	-0.0001068 	1165.2 
288.80 	-0.0001068 	1165.2 
289.30 	-0.0001068 	1165.2 
289.80 	-0.0001068 	1165.2 
290.30 	-0.0001068 	1165.2 
290.80 	-0.0001068 	1165.2 
291.30 	-0.0001068 	1165.2 
291.80 	-0.0001068 	1165.2 
292.30 	-0.0001068 	1165.2 
292.80 	-0.0002136 	1165.2 
293.30 	-0.0002136 	1165.2 
293.80 	-0.0001068 	1165.2 
294.30 	-0.0001068 	1165.2 
294.80 	-0.0001068 	1331.7 
295.30 	-0.0001068 	1331.7 
295.80 	-0.0001068 	1165.2 
296.30 	-0.0001068 	1165.2 
296.80 	-0.0002136 	1165.2 
297.30 	-0.0002136 	1331.7 
297.80 	-0.0002136 	1165.2 
298.30 	-0.0001068 	1165.2 
298.80 	-0.0001068 	1165.2 
299.30 	-0.0001068 	1165.2 
299.80 	-0.0001068 	1165.2 
300.30 	-0.0002136 	1165.2 
300.80 	-0.0002136 	1165.2 
301.30 	-0.0002136 	1165.2 
301.80 	-0.0001068 	1165.2 
302.30 	-0.0001068 	1165.2 
302.80 	-0.0002136 	1165.2 
303.30 	-0.0002136 	1331.7 
303.80 	-0.0002136 	1165.2 
304.30 	-0.0002136 	1165.2 
304.80 	-0.0002136 	1165.2 
305.30 	-0.0002136 	1165.2 
305.80 	-0.0002136 	1165.2 
306.30 	-0.0002136 	1165.2 
306.80 	-0.0002136 	998.74 
307.30 	-0.0002136 	1165.2 
307.80 	-0.0002136 	1165.2 
308.30 	-0.0002136 	1165.2 
308.80 	-0.0002136 	1165.2 
309.30 	-0.0002136 	998.74 
309.80 	-0.0002136 	1165.2 
310.30 	-0.0002136 	1165.2 
310.80 	-0.0002136 	1165.2 
311.30 	-0.0002136 	1165.2 
311.80 	-0.0003204 	1165.2 
312.30 	-0.0002136 	1165.2 
312.80 	-0.0003204 	1165.2 
313.30 	-0.0002136 	1165.2 
313.80 	-0.0002136 	1165.2 
314.30 	-0.0002136 	1165.2 
314.80 	-0.0002136 	1165.2 
315.30 	-0.0002136 	1165.2 
315.80 	-0.0002136 	1165.2 
316.30 	-0.0003204 	1165.2 
316.80 	-0.0002136 	1165.2 
317.30 	-0.0002136 	1331.7 
317.80 	-0.0002136 	1165.2 
318.30 	-0.0002136 	1165.2 
318.80 	-0.0002136 	1165.2 
319.30 	-0.0002136 	1165.2 
319.80 	-0.0002136 	1165.2 
320.30 	-0.0002136 	1165.2 
320.80 	-0.0002136 	1165.2 
321.30 	-0.0002136 	1165.2 
321.80 	-0.0002136 	1165.2 
322.30 	-0.0002136 	1165.2 
322.80 	-0.0002136 	1165.2 
323.30 	-0.0002136 	1165.2 
323.80 	-0.0002136 	1165.2 
324.30 	-0.0002136 	1165.2 
324.80 	-0.0002136 	1165.2 
325.30 	-0.0002136 	1165.2 
325.80 	-0.0002136 	1165.2 
326.30 	-0.0003204 	1165.2 
326.80 	-0.0002136 	1165.2 
327.30 	-0.0002136 	1165.2 
327.80 	-0.0002136 	1165.2 
328.30 	-0.0003204 	1165.2 
328.80 	-0.0002136 	1165.2 
329.30 	-0.0002136 	1165.2 
329.80 	-0.0003204 	1165.2 
330.30 	-0.0003204 	1165.2 
330.80 	-0.0002136 	1165.2 
331.30 	-0.0002136 	1165.2 
331.80 	-0.0003204 	1165.2 
332.30 	-0.0003204 	1165.2 
332.80 	-0.0003204 	1165.2 
333.30 	-0.0003204 	1165.2 
333.80 	-0.0002136 	1498.1 
334.30 	-0.0002136 	1831.0 
334.80 	0.00000 	2330.4 
335.30 	0.00000 	2829.8 
335.80 	0.00010662 	3329.1 
336.30 	0.00021324 	3828.5 
336.80 	0.00031985 	4161.4 
337.30 	0.00031985 	4494.3 
337.80 	0.00042647 	4827.2 
338.30 	0.00053309 	5160.2 
338.80 	0.00063971 	5326.6 
339.30 	0.00053309 	5493.1 
339.80 	0.00063971 	5992.4 
340.30 	0.00074633 	6158.9 
340.80 	0.00085294 	6491.8 
340.98 	0.00085294 	7157.6 
341.40 	0.00095956 	7823.5 
341.87 	0.0010662 	8489.3 
342.22 	0.0012794 	9155.1 
342.58 	0.0012794 	9820.9 
342.92 	0.0013860 	10487 
343.42 	0.0015993 	10986 
343.75 	0.0015993 	11652 
344.25 	0.0018125 	11818 
344.43 	0.0018125 	12484 
344.93 	0.0019191 	12984 
345.43 	0.0020257 	13483 
345.93 	0.0021324 	13982 
346.40 	0.0022390 	14648 
346.90 	0.0023456 	14981 
347.40 	0.0023456 	15480 
347.90 	0.0025588 	15813 
348.40 	0.0026655 	16313 
348.90 	0.0026655 	16646 
349.30 	0.0028787 	17312 
349.78 	0.0030919 	17977 
350.25 	0.0030919 	18643 
350.75 	0.0031985 	19143 
351.20 	0.0033052 	19808 
351.70 	0.0035184 	20308 
352.20 	0.0035184 	20807 
352.70 	0.0037316 	21306 
353.20 	0.0038383 	21806 
353.70 	0.0039449 	22305 
354.18 	0.0040515 	22971 
354.68 	0.0041581 	22971 
355.18 	0.0041581 	23137 
355.68 	0.0041581 	23137 
356.18 	0.0040515 	23304 
356.68 	0.0041581 	23304 
357.18 	0.0041581 	23304 
357.68 	0.0041581 	23137 
358.18 	0.0041581 	23304 
358.68 	0.0041581 	23304 
359.18 	0.0041581 	23304 
359.68 	0.0041581 	23470 
360.18 	0.0041581 	23304 
360.68 	0.0040515 	23304 
361.18 	0.0041581 	23137 
361.68 	0.0040515 	23304 
362.18 	0.0041581 	23304 
362.68 	0.0041581 	23304 
363.18 	0.0040515 	23304 
363.68 	0.0041581 	23137 
364.18 	0.0040515 	23470 
364.68 	0.0041581 	23304 
365.18 	0.0040515 	23304 
365.68 	0.0041581 	23137 
366.18 	0.0041581 	23304 
366.68 	0.0041581 	23304 
367.18 	0.0041581 	23304 
367.68 	0.0041581 	23304 
368.18 	0.0040515 	23304 
368.68 	0.0041581 	23470 
369.18 	0.0040515 	23304 
369.68 	0.0041581 	23304 
370.18 	0.0040515 	23304 
370.68 	0.0041581 	23137 
371.18 	0.0040515 	23304 
371.68 	0.0040515 	23304 
372.18 	0.0041581 	23137 
372.68 	0.0040515 	23304 
373.18 	0.0041581 	23470 
373.68 	0.0041581 	23304 
374.18 	0.0041581 	23304 
374.68 	0.0040515 	23304 
375.18 	0.0041581 	23137 
375.68 	0.0041581 	23470 
376.18 	0.0040515 	23304 
376.68 	0.0041581 	23304 
377.18 	0.0040515 	23304 
377.68 	0.0041581 	23470 
378.18 	0.0041581 	23470 
378.68 	0.0041581 	23304 
379.18 	0.0040515 	23137 
379.68 	0.0040515 	23137 
380.18 	0.0041581 	23470 
380.68 	0.0040515 	23470 
381.18 	0.0041581 	23304 
381.68 	0.0040515 	23137 
382.18 	0.0040515 	23137 
382.68 	0.0040515 	23304 
383.18 	0.0040515 	23304 
383.68 	0.0041581 	23304 
384.18 	0.0040515 	23137 
384.68 	0.0040515 	23304 
385.18 	0.0040515 	23304 
385.68 	0.0041581 	23304 
386.18 	0.0041581 	23304 
386.68 	0.0040515 	23304 
387.18 	0.0040515 	23304 
387.68 	0.0041581 	23304 
388.18 	0.0040515 	23304 
388.68 	0.0040515 	23137 
389.18 	0.0040515 	23304 
389.68 	0.0040515 	23304 
390.18 	0.0040515 	23304 
390.68 	0.0040515 	23304 
391.18 	0.0041581 	23304 
391.68 	0.0040515 	23304 
392.18 	0.0040515 	23304 
392.68 	0.0040515 	23470 
393.18 	0.0040515 	23304 
393.68 	0.0040515 	23304 
394.18 	0.0040515 	23304 
394.68 	0.0040515 	23137 
395.18 	0.0041581 	23304 
395.68 	0.0040515 	23304 
396.18 	0.0040515 	23304 
396.68 	0.0041581 	23304 
397.18 	0.0040515 	23470 
397.68 	0.0040515 	23304 
398.18 	0.0041581 	23304 
398.68 	0.0040515 	23137 
399.18 	0.0040515 	23137 
399.68 	0.0040515 	23304 
400.18 	0.0040515 	23304 
400.68 	0.0041581 	23137 
401.18 	0.0040515 	23137 
401.68 	0.0040515 	23304 
402.18 	0.0040515 	23137 
402.68 	0.0040515 	23304 
403.18 	0.0040515 	23304 
403.68 	0.0040515 	23304 
404.18 	0.0040515 	23304 
404.68 	0.0040515 	23304 
405.18 	0.0040515 	23304 
405.68 	0.0040515 	23470 
406.18 	0.0040515 	23304 
406.68 	0.0040515 	23304 
407.18 	0.0040515 	23304 
407.68 	0.0040515 	23304 
408.18 	0.0040515 	23304 
408.68 	0.0040515 	23304 
409.18 	0.0040515 	23304 
409.68 	0.0040515 	23304 
410.18 	0.0040515 	23304 
410.68 	0.0040515 	23304 
411.18 	0.0040515 	23304 
411.68 	0.0040515 	23304 
412.18 	0.0040515 	23304 
412.68 	0.0040515 	23304 
413.18 	0.0040515 	23470 
413.68 	0.0040515 	23470 
414.18 	0.0040515 	23470 
414.68 	0.0040515 	22805 
415.18 	0.0040515 	22305 
415.68 	0.0039449 	21972 
416.18 	0.0039449 	21473 
416.68 	0.0039449 	20974 
417.17 	0.0039449 	20308 
417.67 	0.0038383 	20141 
418.17 	0.0037316 	19642 
418.67 	0.0036250 	19143 
419.17 	0.0034118 	18810 
419.67 	0.0033052 	18310 
420.17 	0.0031985 	17977 
420.67 	0.0030919 	17478 
421.17 	0.0029853 	17145 
421.53 	0.0028787 	16479 
421.98 	0.0026655 	15813 
422.48 	0.0025588 	15148 
422.98 	0.0024522 	14815 
423.48 	0.0023456 	14149 
423.98 	0.0021324 	13649 
424.48 	0.0020257 	13317 
424.92 	0.0019191 	12651 
425.42 	0.0018125 	12318 
425.80 	0.0017059 	11652 
426.30 	0.0015993 	11319 
426.78 	0.0014927 	10653 
427.28 	0.0013860 	10320 
427.78 	0.0012794 	9820.9 
428.22 	0.0012794 	9155.1 
428.72 	0.0011728 	8988.7 
429.08 	0.0010662 	8322.8 
429.58 	0.00095956 	7989.9 
430.08 	0.00085294 	7490.6 
430.58 	0.00085294 	6824.7 
431.08 	0.00074633 	6491.8 
431.58 	0.00063971 	5992.4 
432.08 	0.00053309 	5659.5 
432.58 	0.00053309 	5160.2 
433.08 	0.00042647 	4827.2 
433.58 	0.00031985 	4327.9 
434.08 	0.00031985 	4161.4 
434.58 	0.00021324 	3828.5 
435.08 	0.00021324 	3495.6 
435.58 	0.00010662 	3329.1 
436.08 	0.00010662 	3162.7 
436.58 	0.00010662 	3329.1 
437.08 	0.00010662 	3329.1 
437.58 	0.00010662 	3162.7 
438.08 	0.00000 	2996.2 
438.50 	0.00000 	2330.4 
439.00 	-0.0002136 	1997.5 
439.50 	-0.0002136 	1664.6 
440.00 	-0.0002136 	1498.1 
440.50 	-0.0003204 	1331.7 
441.00 	-0.0003204 	1331.7 
441.50 	-0.0003204 	1331.7 
442.00 	-0.0004273 	1165.2 
442.50 	-0.0004273 	1165.2 
443.00 	-0.0004273 	1165.2 
443.50 	-0.0004273 	1165.2 
444.00 	-0.0004273 	1165.2 
444.50 	-0.0004273 	1165.2 
445.00 	-0.0004273 	1498.1 
445.50 	-0.0004273 	1165.2 
446.00 	-0.0004273 	1165.2 
446.50 	-0.0004273 	1165.2 
447.00 	-0.0005341 	1165.2 
447.50 	-0.0004273 	1165.2 
448.00 	-0.0004273 	1165.2 
448.50 	-0.0004273 	1165.2 
449.00 	-0.0004273 	1165.2 
449.50 	-0.0004273 	1165.2 
450.00 	-0.0005341 	998.74 
450.50 	-0.0004273 	998.74 
451.00 	-0.0005341 	1165.2 
451.50 	-0.0004273 	1165.2 
452.00 	-0.0004273 	1331.7 
452.50 	-0.0005341 	1165.2 
453.00 	-0.0005341 	1165.2 
453.50 	-0.0005341 	1165.2 
454.00 	-0.0005341 	1165.2 
454.50 	-0.0005341 	1165.2 
455.00 	-0.0005341 	1165.2 
455.50 	-0.0005341 	1331.7 
456.00 	-0.0005341 	1165.2 
456.50 	-0.0005341 	1165.2 
457.00 	-0.0005341 	1165.2 
457.50 	-0.0005341 	1165.2 
458.00 	-0.0005341 	1165.2 
458.50 	-0.0005341 	1165.2 
459.00 	-0.0005341 	1165.2 
459.50 	-0.0005341 	1165.2 
460.00 	-0.0006409 	1165.2 
460.50 	-0.0005341 	1165.2 
461.00 	-0.0005341 	1331.7 
461.50 	-0.0005341 	1165.2 
462.00 	-0.0006409 	1165.2 
462.50 	-0.0005341 	1165.2 
463.00 	-0.0005341 	1165.2 
463.50 	-0.0005341 	1165.2 
464.00 	-0.0005341 	1165.2 
464.50 	-0.0005341 	1165.2 
465.00 	-0.0006409 	1165.2 
465.50 	-0.0005341 	998.74 
466.00 	-0.0006409 	998.74 
466.50 	-0.0005341 	1165.2 
467.00 	-0.0006409 	1165.2 
467.50 	-0.0006409 	1165.2 
468.00 	-0.0005341 	1165.2 
468.50 	-0.0006409 	998.74 
469.00 	-0.0005341 	1165.2 
469.50 	-0.0005341 	1165.2 
470.00 	-0.0005341 	1165.2 
470.50 	-0.0006409 	1165.2 
471.00 	-0.0006409 	1165.2 
471.50 	-0.0006409 	1331.7 
472.00 	-0.0005341 	1165.2 
472.50 	-0.0006409 	998.74 
473.00 	-0.0006409 	1165.2 
473.50 	-0.0006409 	998.74 
474.00 	-0.0006409 	1165.2 
474.50 	-0.0006409 	1331.7 
475.00 	-0.0005341 	1165.2 
475.50 	-0.0006409 	998.74 
476.00 	-0.0005341 	1165.2 
476.50 	-0.0006409 	998.74 
477.00 	-0.0005341 	1165.2 
477.50 	-0.0006409 	1165.2 
478.00 	-0.0006409 	1165.2 
478.50 	-0.0006409 	1165.2 
479.00 	-0.0006409 	1331.7 
479.50 	-0.0006409 	1165.2 
480.00 	-0.0006409 	1165.2 
480.50 	-0.0006409 	1165.2 
481.00 	-0.0005341 	1165.2 
481.50 	-0.0005341 	1165.2 
482.00 	-0.0006409 	1165.2 
482.50 	-0.0005341 	1165.2 
483.00 	-0.0005341 	1165.2 
483.50 	-0.0006409 	1165.2 
484.00 	-0.0006409 	1165.2 
484.50 	-0.0006409 	1165.2 
485.00 	-0.0005341 	1165.2 
485.50 	-0.0005341 	1165.2 
486.00 	-0.0005341 	1165.2 
486.50 	-0.0006409 	1165.2 
487.00 	-0.0006409 	1165.2 
487.50 	-0.0006409 	1165.2 
488.00 	-0.0006409 	1165.2 
488.50 	-0.0005341 	1165.2 
489.00 	-0.0006409 	1165.2 
489.50 	-0.0006409 	1165.2 
490.00 	-0.0005341 	1165.2 
490.50 	-0.0006409 	1165.2 
491.00 	-0.0006409 	1165.2 
491.50 	-0.0006409 	1165.2 
492.00 	-0.0006409 	1165.2 
492.50 	-0.0006409 	1165.2 
493.00 	-0.0006409 	1165.2 
493.50 	-0.0006409 	1165.2 
494.00 	-0.0006409 	998.74 
494.50 	-0.0006409 	1165.2 
495.00 	-0.0006409 	1165.2 
495.50 	-0.0006409 	1165.2 
496.00 	-0.0006409 	1165.2 
496.50 	-0.0005341 	1331.7 
497.00 	-0.0006409 	998.74 
497.50 	-0.0006409 	1165.2 
498.00 	-0.0006409 	1165.2 
498.50 	-0.0006409 	1165.2 
498.62 	-0.0006409 	1165.2 
499.12 	-0.0006409 	1165.2 
499.62 	-0.0006409 	1165.2 
500.12 	-0.0006409 	1165.2 
500.62 	-0.0006409 	1331.7 
501.12 	-0.0006409 	1331.7 
501.62 	-0.0005341 	1331.7 
502.12 	-0.0006409 	1165.2 
502.62 	-0.0006409 	1165.2 
503.12 	-0.0005341 	1165.2 
503.62 	-0.0006409 	1165.2 
504.12 	-0.0005341 	1165.2 
504.62 	-0.0006409 	1165.2 
505.12 	-0.0006409 	1165.2 
505.62 	-0.0006409 	1165.2 
506.12 	-0.0005341 	1165.2 
506.62 	-0.0006409 	1165.2 
507.12 	-0.0006409 	1165.2 
507.62 	-0.0006409 	998.74 
508.12 	-0.0006409 	1165.2 
508.62 	-0.0006409 	1165.2 
509.12 	-0.0005341 	1331.7 
509.62 	-0.0006409 	1165.2 
510.12 	-0.0006409 	1165.2 
510.62 	-0.0006409 	1165.2 
511.12 	-0.0006409 	1165.2 
511.62 	-0.0006409 	1165.2 
512.12 	-0.0006409 	1165.2 
512.62 	-0.0006409 	1165.2 
513.12 	-0.0005341 	1165.2 
513.62 	-0.0006409 	998.74 
514.12 	-0.0006409 	1165.2 
514.62 	-0.0006409 	1165.2 
515.12 	-0.0006409 	1165.2 
515.62 	-0.0006409 	1165.2 
516.12 	-0.0006409 	1165.2 
516.62 	-0.0006409 	1165.2 
517.12 	-0.0006409 	1165.2 
517.62 	-0.0006409 	1165.2 
518.12 	-0.0006409 	1331.7 
518.62 	-0.0006409 	1165.2 
519.12 	-0.0006409 	1165.2 
519.62 	-0.0006409 	1165.2 
520.12 	-0.0006409 	1331.7 
520.62 	-0.0006409 	1165.2 
521.12 	-0.0006409 	1165.2 
521.62 	-0.0006409 	1165.2 
522.12 	-0.0006409 	1165.2 
522.62 	-0.0006409 	1165.2 
523.12 	-0.0006409 	1165.2 
523.62 	-0.0006409 	1165.2 
524.12 	-0.0006409 	998.74 
524.62 	-0.0006409 	1165.2 
525.12 	-0.0006409 	1165.2 
525.62 	-0.0006409 	998.74 
526.12 	-0.0006409 	1165.2 
526.62 	-0.0006409 	1165.2 
527.12 	-0.0006409 	1165.2 
527.62 	-0.0006409 	1165.2 
528.12 	-0.0007478 	1165.2 
528.62 	-0.0006409 	1331.7 
529.12 	-0.0006409 	1165.2 
529.62 	-0.0006409 	1165.2 
530.12 	-0.0006409 	1165.2 
530.62 	-0.0006409 	1498.1 
531.12 	-0.0005341 	1997.5 
531.62 	-0.0005341 	2330.4 
532.12 	-0.0003204 	2829.8 
532.60 	-0.0002136 	3495.6 
533.10 	-0.0001068 	3828.5 
533.60 	0.00000 	4161.4 
534.10 	0.00010662 	4660.8 
534.60 	0.00021324 	4827.2 
535.10 	0.00021324 	5160.2 
535.60 	0.00021324 	5493.1 
536.10 	0.00021324 	5659.5 
536.60 	0.00031985 	5992.4 
537.10 	0.00031985 	6158.9 
537.57 	0.00042647 	6824.7 
538.02 	0.00053309 	7490.6 
538.37 	0.00074633 	8156.4 
538.70 	0.00074633 	8822.2 
539.10 	0.00095956 	9488.0 
539.50 	0.0010662 	10154 
539.95 	0.0011728 	10820 
540.38 	0.0012794 	11486 
540.88 	0.0013860 	11985 
541.35 	0.0014927 	12651 
541.85 	0.0015993 	13150 
542.35 	0.0017059 	13649 
542.77 	0.0019191 	14315 
543.27 	0.0019191 	14648 
543.77 	0.0020257 	15148 
544.27 	0.0021324 	15480 
544.77 	0.0022390 	15980 
545.27 	0.0023456 	16479 
545.77 	0.0024522 	16979 
546.27 	0.0025588 	17478 
546.63 	0.0026655 	18144 
547.13 	0.0028787 	18810 
547.63 	0.0029853 	19309 
548.12 	0.0030919 	19975 
548.62 	0.0031985 	20641 
549.12 	0.0033052 	20974 
549.60 	0.0034118 	21639 
550.10 	0.0035184 	22139 
550.60 	0.0036250 	22472 
551.10 	0.0037316 	22971 
551.60 	0.0038383 	23137 
552.10 	0.0038383 	23137 
552.60 	0.0038383 	23304 
553.10 	0.0038383 	23304 
553.60 	0.0038383 	23304 
554.10 	0.0038383 	23304 
554.60 	0.0038383 	23304 
555.10 	0.0038383 	23304 
555.60 	0.0038383 	23304 
556.10 	0.0037316 	23304 
556.60 	0.0037316 	23304 
557.10 	0.0038383 	23304 
557.60 	0.0038383 	23470 
558.10 	0.0037316 	23304 
558.60 	0.0037316 	23304 
559.10 	0.0038383 	23304 
559.60 	0.0038383 	23470 
560.10 	0.0038383 	23304 
560.60 	0.0038383 	23304 
561.10 	0.0038383 	23304 
561.60 	0.0038383 	23304 
562.10 	0.0038383 	23304 
562.60 	0.0038383 	23304 
563.10 	0.0038383 	23304 
563.60 	0.0038383 	23304 
564.10 	0.0038383 	23137 
564.60 	0.0038383 	23304 
565.10 	0.0038383 	23470 
565.60 	0.0038383 	23304 
566.10 	0.0038383 	23304 
566.60 	0.0038383 	23304 
567.10 	0.0038383 	23304 
567.60 	0.0037316 	23304 
568.10 	0.0038383 	23304 
568.60 	0.0037316 	23304 
569.10 	0.0037316 	23137 
569.60 	0.0038383 	23470 
570.10 	0.0038383 	23470 
570.60 	0.0038383 	23304 
571.10 	0.0038383 	23304 
571.60 	0.0038383 	23304 
572.10 	0.0038383 	23304 
572.60 	0.0038383 	23304 
573.10 	0.0037316 	23137 
573.60 	0.0038383 	23304 
574.10 	0.0038383 	23304 
574.60 	0.0038383 	23470 
575.10 	0.0037316 	23304 
575.60 	0.0037316 	23304 
576.10 	0.0037316 	23304 
576.60 	0.0038383 	23304 
577.10 	0.0038383 	23304 
577.60 	0.0038383 	23304 
578.10 	0.0037316 	23304 
578.60 	0.0038383 	23304 
579.10 	0.0038383 	23470 
579.60 	0.0038383 	23470 
580.10 	0.0037316 	23137 
580.60 	0.0037316 	23137 
581.10 	0.0038383 	23304 
581.60 	0.0038383 	23470 
582.10 	0.0038383 	23304 
582.60 	0.0038383 	23304 
583.10 	0.0037316 	23137 
583.60 	0.0038383 	23470 
584.10 	0.0038383 	23470 
584.60 	0.0038383 	23304 
585.10 	0.0038383 	23304 
585.60 	0.0038383 	23304 
586.10 	0.0038383 	23304 
586.60 	0.0038383 	23304 
587.10 	0.0038383 	23304 
587.60 	0.0037316 	23304 
588.10 	0.0038383 	23304 
588.60 	0.0037316 	23304 
589.10 	0.0038383 	23304 
589.60 	0.0038383 	23304 
590.10 	0.0038383 	23304 
590.60 	0.0038383 	23304 
591.10 	0.0038383 	23470 
591.60 	0.0038383 	23470 
592.10 	0.0037316 	23304 
592.60 	0.0038383 	23304 
593.10 	0.0038383 	23304 
593.60 	0.0038383 	23304 
594.10 	0.0038383 	23304 
594.60 	0.0038383 	23304 
595.10 	0.0038383 	23137 
595.60 	0.0038383 	23304 
596.10 	0.0038383 	23137 
596.60 	0.0037316 	23304 
597.10 	0.0038383 	23304 
597.60 	0.0038383 	23304 
598.10 	0.0038383 	23470 
598.60 	0.0038383 	23470 
599.10 	0.0038383 	23304 
599.60 	0.0038383 	23137 
600.10 	0.0038383 	23304 
600.60 	0.0037316 	23304 
601.10 	0.0038383 	23304 
601.60 	0.0038383 	23304 
602.10 	0.0038383 	23304 
602.60 	0.0038383 	23304 
603.10 	0.0037316 	23470 
603.60 	0.0038383 	23470 
604.10 	0.0038383 	23137 
604.60 	0.0038383 	23137 
605.10 	0.0038383 	23304 
605.60 	0.0038383 	23470 
606.10 	0.0038383 	23304 
606.60 	0.0038383 	23304 
607.10 	0.0038383 	23137 
607.60 	0.0038383 	23304 
608.10 	0.0037316 	23304 
608.60 	0.0038383 	23470 
609.10 	0.0037316 	23304 
609.60 	0.0037316 	23137 
610.10 	0.0038383 	23304 
610.60 	0.0038383 	23304 
610.95 	0.0037316 	23470 
611.45 	0.0038383 	23304 
611.95 	0.0038383 	23304 
612.45 	0.0038383 	23304 
612.95 	0.0037316 	23137 
613.45 	0.0038383 	23304 
613.95 	0.0038383 	23470 
614.45 	0.0038383 	23304 
614.95 	0.0038383 	23304 
615.45 	0.0038383 	23304 
615.95 	0.0038383 	23304 
616.45 	0.0038383 	23304 
616.95 	0.0038383 	23304 
617.45 	0.0037316 	23304 
617.95 	0.0038383 	23304 
618.45 	0.0038383 	23304 
618.95 	0.0038383 	23304 
619.45 	0.0038383 	23304 
619.95 	0.0038383 	23137 
620.45 	0.0037316 	23137 
620.95 	0.0038383 	23304 
621.45 	0.0038383 	23470 
621.95 	0.0038383 	23304 
622.45 	0.0038383 	23304 
622.95 	0.0038383 	23304 
623.45 	0.0038383 	23304 
623.95 	0.0038383 	23470 
624.45 	0.0038383 	23304 
624.95 	0.0038383 	23304 
625.45 	0.0038383 	23304 
625.95 	0.0038383 	23304 
626.45 	0.0038383 	23470 
626.95 	0.0038383 	23304 
627.45 	0.0038383 	23137 
627.95 	0.0038383 	23304 
628.45 	0.0038383 	23137 
628.95 	0.0038383 	23470 
629.45 	0.0038383 	23304 
629.95 	0.0038383 	23304 
630.45 	0.0038383 	23137 
630.95 	0.0037316 	23137 
631.45 	0.0038383 	23304 
631.95 	0.0038383 	23470 
632.45 	0.0037316 	23470 
632.95 	0.0038383 	23304 
633.45 	0.0038383 	23304 
633.95 	0.0038383 	23304 
634.45 	0.0038383 	23304 
634.95 	0.0038383 	23304 
635.45 	0.0038383 	23304 
635.95 	0.0038383 	23304 
636.45 	0.0038383 	23304 
636.95 	0.0038383 	23304 
637.45 	0.0038383 	23304 
637.95 	0.0038383 	23304 
638.45 	0.0038383 	23304 
638.95 	0.0038383 	23304 
639.45 	0.0038383 	23470 
639.95 	0.0038383 	23304 
640.45 	0.0038383 	23304 
640.93 	0.0038383 	23137 
641.43 	0.0038383 	23470 
641.93 	0.0038383 	23470 
642.43 	0.0038383 	23470 
642.93 	0.0038383 	23304 
643.43 	0.0038383 	23304 
643.93 	0.0038383 	23304 
644.43 	0.0038383 	23304 
644.93 	0.0038383 	23304 
645.43 	0.0038383 	23304 
645.93 	0.0038383 	23304 
646.43 	0.0038383 	23304 
646.93 	0.0038383 	23304 
647.43 	0.0038383 	23304 
647.93 	0.0038383 	23137 
648.43 	0.0038383 	23304 
648.93 	0.0038383 	23304 
649.43 	0.0038383 	23304 
649.93 	0.0038383 	23304 
650.43 	0.0038383 	23304 
650.93 	0.0038383 	23304 
651.43 	0.0038383 	23304 
651.93 	0.0038383 	23470 
652.43 	0.0038383 	23304 
652.93 	0.0038383 	23304 
653.43 	0.0038383 	23304 
653.93 	0.0038383 	23304 
654.43 	0.0038383 	23304 
654.93 	0.0038383 	23304 
655.43 	0.0038383 	23304 
655.93 	0.0038383 	23304 
656.43 	0.0038383 	23470 
656.93 	0.0038383 	23304 
657.43 	0.0038383 	23137 
657.93 	0.0038383 	23304 
658.43 	0.0038383 	23304 
658.93 	0.0038383 	23470 
659.43 	0.0038383 	23304 
659.93 	0.0038383 	23137 
660.43 	0.0038383 	23137 
660.93 	0.0038383 	23304 
661.43 	0.0038383 	23304 
661.93 	0.0038383 	23304 
662.43 	0.0038383 	23304 
662.93 	0.0038383 	23304 
663.43 	0.0038383 	23304 
663.93 	0.0038383 	23304 
664.43 	0.0038383 	23304 
664.93 	0.0038383 	23304 
665.43 	0.0038383 	23304 
665.93 	0.0038383 	23304 
666.43 	0.0038383 	23304 
666.93 	0.0038383 	23304 
667.43 	0.0038383 	23137 
667.93 	0.0038383 	23304 
668.43 	0.0038383 	23470 
668.93 	0.0038383 	23470 
669.43 	0.0038383 	23304 
669.93 	0.0038383 	23137 
670.43 	0.0038383 	23137 
670.93 	0.0038383 	23304 
671.43 	0.0038383 	23304 
671.93 	0.0038383 	23304 
672.43 	0.0038383 	23137 
672.93 	0.0038383 	23137 
673.43 	0.0038383 	23304 
673.93 	0.0038383 	23304 
674.43 	0.0038383 	23304 
674.93 	0.0038383 	23304 
675.43 	0.0038383 	23304 
675.93 	0.0038383 	23304 
676.43 	0.0038383 	23304 
676.93 	0.0038383 	23137 
677.43 	0.0038383 	23304 
677.93 	0.0038383 	23304 
678.43 	0.0038383 	23304 
678.93 	0.0038383 	23304 
679.43 	0.0038383 	23304 
679.93 	0.0038383 	23304 
680.43 	0.0038383 	23304 
680.93 	0.0038383 	23304 
681.43 	0.0038383 	23304 
681.93 	0.0038383 	23304 
682.43 	0.0038383 	23304 
682.93 	0.0038383 	23304 
683.43 	0.0038383 	23304 
683.93 	0.0038383 	23470 
684.43 	0.0038383 	23470 
684.93 	0.0038383 	23304 
685.43 	0.0038383 	23137 
685.93 	0.0038383 	23304 
686.43 	0.0038383 	23304 
686.93 	0.0038383 	23470 
687.43 	0.0038383 	23304 
687.93 	0.0038383 	23304 
688.43 	0.0038383 	23304 
688.93 	0.0038383 	23304 
689.43 	0.0038383 	23304 
689.93 	0.0038383 	23304 
690.43 	0.0038383 	23137 
690.93 	0.0038383 	23304 
691.43 	0.0038383 	23304 
691.93 	0.0038383 	23470 
692.43 	0.0038383 	23304 
692.93 	0.0038383 	23304 
693.43 	0.0038383 	23304 
693.93 	0.0038383 	23304 
694.43 	0.0038383 	23304 
694.93 	0.0038383 	23304 
695.43 	0.0038383 	23304 
695.93 	0.0038383 	23137 
696.43 	0.0038383 	23137 
696.93 	0.0038383 	23137 
697.43 	0.0038383 	23470 
697.93 	0.0038383 	23470 
698.43 	0.0038383 	23304 
698.93 	0.0038383 	23137 
699.43 	0.0038383 	23137 
699.93 	0.0038383 	23304 
700.43 	0.0038383 	23304 
700.93 	0.0038383 	23304 
701.43 	0.0038383 	23803 
701.93 	0.0038383 	24136 
702.43 	0.0038383 	24636 
702.93 	0.0038383 	25135 
703.43 	0.0038383 	25634 
703.93 	0.0038383 	26134 
704.42 	0.0038383 	26800 
704.92 	0.0038383 	27299 
705.42 	0.0038383 	27632 
705.83 	0.0038383 	28298 
706.33 	0.0038383 	28631 
706.80 	0.0038383 	29296 
707.30 	0.0038383 	29629 
707.80 	0.0038383 	30129 
708.27 	0.0038383 	30795 
708.77 	0.0038383 	30961 
709.22 	0.0038383 	31627 
709.72 	0.0038383 	32126 
710.22 	0.0038383 	32459 
710.68 	0.0038383 	33125 
711.18 	0.0038383 	33458 
711.68 	0.0038383 	33957 
712.15 	0.0038383 	34623 
712.65 	0.0038383 	34956 
713.10 	0.0038383 	35622 
713.60 	0.0038383 	35955 
714.03 	0.0038383 	36620 
714.53 	0.0038383 	37120 
714.87 	0.0038383 	37786 
715.37 	0.0038383 	38285 
715.87 	0.0038383 	38784 
716.32 	0.0038383 	39450 
716.82 	0.0038383 	39950 
717.32 	0.0038383 	40449 
717.82 	0.0038383 	40948 
718.32 	0.0038383 	41448 
718.80 	0.0038383 	42114 
719.30 	0.0038383 	42613 
719.80 	0.0038383 	43112 
720.30 	0.0038383 	43612 
720.80 	0.0038383 	44111 
721.30 	0.0038383 	44777 
721.80 	0.0038383 	45276 
722.30 	0.0038383 	45609 
722.68 	0.0038383 	46275 
723.18 	0.0038383 	46774 
723.68 	0.0038383 	47274 
724.18 	0.0038383 	47773 
724.68 	0.0038383 	48272 
725.13 	0.0038383 	48938 
725.63 	0.0038383 	49271 
726.05 	0.0038383 	49937 
726.55 	0.0038383 	50270 
727.05 	0.0038383 	50769 
727.50 	0.0038383 	51435 
728.00 	0.0038383 	51768 
728.50 	0.0038383 	52434 
729.00 	0.0038383 	52933 
729.50 	0.0038383 	53433 
730.00 	0.0038383 	53932 
730.50 	0.0038383 	54431 
730.97 	0.0038383 	55097 
731.47 	0.0038383 	55430 
731.88 	0.0038383 	56096 
732.38 	0.0038383 	56595 
732.88 	0.0038383 	57095 
733.38 	0.0038383 	57594 
733.88 	0.0038383 	58093 
734.38 	0.0038383 	58593 
734.88 	0.0038383 	59092 
735.37 	0.0038383 	59758 
735.87 	0.0038383 	60257 
736.37 	0.0038383 	60757 
736.83 	0.0038383 	61423 
737.33 	0.0038383 	61755 
737.83 	0.0038383 	62255 
738.33 	0.0038383 	62754 
738.80 	0.0038383 	63420 
739.30 	0.0038383 	63919 
739.80 	0.0038383 	64419 
740.30 	0.0038383 	64918 
740.80 	0.0038383 	65418 
741.27 	0.0038383 	66083 
741.77 	0.0038383 	66583 
742.27 	0.0038383 	67082 
742.77 	0.0038383 	67581 
743.27 	0.0038383 	68081 
743.77 	0.0038383 	68580 
744.22 	0.0038383 	69246 
744.72 	0.0038383 	69745 
745.22 	0.0038383 	70078 
745.68 	0.0038383 	70744 
746.18 	0.0038383 	71244 
746.68 	0.0038383 	71743 
747.18 	0.0038383 	72242 
747.68 	0.0038383 	72908 
748.18 	0.0038383 	73241 
748.67 	0.0038383 	73907 
749.17 	0.0038383 	74406 
749.67 	0.0038383 	74906 
750.17 	0.0038383 	75405 
750.65 	0.0038383 	76071 
751.15 	0.0038383 	76404 
751.63 	0.0038383 	77069 
752.13 	0.0038383 	77569 
752.63 	0.0038383 	78068 
753.13 	0.0038383 	78568 
753.63 	0.0038383 	79067 
754.13 	0.0038383 	79733 
754.63 	0.0038383 	80066 
755.05 	0.0038383 	80732 
755.55 	0.0038383 	81231 
756.05 	0.0038383 	81730 
756.55 	0.0038383 	82063 
756.93 	0.0038383 	82729 
757.43 	0.0038383 	83228 
757.93 	0.0038383 	83728 
758.43 	0.0038383 	84061 
758.82 	0.0038383 	84727 
759.32 	0.0038383 	85226 
759.82 	0.0038383 	85725 
760.32 	0.0038383 	86225 
760.82 	0.0038383 	86724 
761.32 	0.0038383 	87223 
761.80 	0.0038383 	87889 
762.30 	0.0038383 	88222 
762.80 	0.0038383 	88888 
763.30 	0.0038383 	89387 
763.80 	0.0038383 	89887 
764.30 	0.0038383 	90386 
764.80 	0.0038383 	90885 
765.23 	0.0038383 	91551 
765.73 	0.0038383 	91884 
766.13 	0.0038383 	92550 
766.63 	0.0038383 	92883 
767.12 	0.0038383 	93549 
767.62 	0.0038383 	94048 
768.12 	0.0038383 	94381 
768.53 	0.0038383 	95047 
769.03 	0.0038383 	95380 
769.45 	0.0038383 	96046 
769.95 	0.0038383 	96545 
770.45 	0.0038383 	97044 
770.95 	0.0038383 	97544 
771.45 	0.0038383 	98209 
771.95 	0.0038383 	98542 
772.45 	0.0038383 	99042 
772.90 	0.0038383 	99708 
773.40 	0.0038383 	100040 
773.82 	0.0038383 	100710 
774.32 	0.0038383 	101040 
774.82 	0.0038383 	101540 
775.28 	0.0038383 	102200 
775.78 	0.0038383 	102700 
776.28 	0.0038383 	103200 
776.78 	0.0038383 	103700 
777.28 	0.0038383 	104200 
777.78 	0.0038383 	104700 
778.25 	0.0038383 	105370 
778.75 	0.0038383 	105870 
779.25 	0.0038383 	106370 
779.75 	0.0038383 	106870 
780.25 	0.0038383 	107360 
780.75 	0.0038383 	107860 
781.20 	0.0038383 	108530 
781.70 	0.0038383 	108860 
782.20 	0.0038383 	109530 
782.70 	0.0038383 	110030 
783.20 	0.0038383 	110530 
783.70 	0.0038383 	111030 
784.17 	0.0038383 	111690 
784.67 	0.0038383 	112030 
785.17 	0.0038383 	112520 
785.57 	0.0038383 	113190 
786.07 	0.0038383 	113520 
786.57 	0.0038383 	114020 
787.03 	0.0038383 	114690 
787.53 	0.0038383 	115020 
787.92 	0.0038383 	115690 
788.42 	0.0038383 	116020 
788.87 	0.0038383 	116690 
789.37 	0.0038383 	117190 
789.87 	0.0038383 	117680 
790.37 	0.0038383 	118180 
790.87 	0.0038383 	118680 
791.37 	0.0038383 	119180 
791.87 	0.0038383 	119680 
792.32 	0.0038383 	120350 
792.82 	0.0038383 	120680 
793.30 	0.0038383 	121350 
793.80 	0.0038383 	121850 
794.30 	0.0038383 	122350 
794.80 	0.0038383 	122850 
795.30 	0.0038383 	123340 
795.80 	0.0038383 	123840 
796.27 	0.0038383 	124510 
796.77 	0.0038383 	125010 
797.27 	0.0038383 	125510 
797.77 	0.0038383 	126010 
798.27 	0.0038383 	126510 
798.77 	0.0038383 	127010 
799.27 	0.0038383 	127510 
799.70 	0.0038383 	128170 
800.20 	0.0038383 	128670 
800.70 	0.0038383 	129170 
801.20 	0.0038383 	129670 
801.70 	0.0038383 	130170 
802.20 	0.0038383 	130670 
802.70 	0.0038383 	131330 
803.20 	0.0038383 	131830 
803.70 	0.0038383 	132330 
804.20 	0.0038383 	132500 
804.70 	0.0038383 	133330 
805.20 	0.0038383 	134000 
805.70 	0.0038383 	134330 
806.20 	0.0038383 	135000 
806.70 	0.0038383 	135500 
807.20 	0.0038383 	136000 
807.70 	0.0038383 	136660 
808.20 	0.0038383 	137160 
808.70 	0.0038383 	137490 
809.20 	0.0038383 	138160 
809.70 	0.0038383 	138820 
810.20 	0.0038383 	139320 
810.70 	0.0038383 	139820 
811.20 	0.0038383 	140320 
811.70 	0.0038383 	140820 
812.20 	0.0038383 	141320 
812.70 	0.0038383 	141820 
813.20 	0.0038383 	142490 
813.70 	0.0038383 	142990 
814.20 	0.0038383 	143490 
814.70 	0.0038383 	143990 
815.20 	0.0038383 	144480 
815.70 	0.0038383 	144980 
816.20 	0.0038383 	145650 
816.70 	0.0038383 	146150 
817.20 	0.0038383 	146650 
817.70 	0.0038383 	147310 
818.20 	0.0038383 	147650 
818.70 	0.0038383 	148310 
819.20 	0.0038383 	148810 
819.70 	0.0038383 	149310 
820.20 	0.0038383 	149810 
820.70 	0.0038383 	150310 
821.20 	0.0038383 	150810 
821.70 	0.0038383 	151480 
822.20 	0.0038383 	151810 
822.70 	0.0038383 	152470 
823.20 	0.0038383 	153140 
823.70 	0.0038383 	153640 
824.20 	0.0038383 	154140 
824.70 	0.0038383 	154640 
825.20 	0.0038383 	155140 
825.70 	0.0038383 	155800 
826.20 	0.0038383 	156140 
826.70 	0.0038383 	156800 
827.20 	0.0038383 	157300 
827.70 	0.0038383 	157800 
828.20 	0.0038383 	158300 
828.70 	0.0038383 	158800 
829.20 	0.0038383 	159470 
829.70 	0.0038383 	159800 
830.20 	0.0038383 	160460 
830.70 	0.0038383 	160960 
831.20 	0.0038383 	161460 
831.70 	0.0038383 	162130 
832.20 	0.0038383 	162630 
832.70 	0.0038383 	163130 
833.20 	0.0038383 	163630 
833.70 	0.0038383 	164290 
834.20 	0.0038383 	164630 
834.70 	0.0038383 	165130 
835.20 	0.0038383 	165790 
835.70 	0.0038383 	166290 
836.20 	0.0038383 	166790 
836.70 	0.0038383 	167290 
837.20 	0.0038383 	167950 
837.70 	0.0038383 	168450 
838.20 	0.0038383 	168950 
838.70 	0.0038383 	169450 
839.20 	0.0038383 	170120 
839.70 	0.0038383 	170450 
840.20 	0.0038383 	171120 
840.70 	0.0038383 	171620 
841.20 	0.0038383 	172120 
841.70 	0.0038383 	172620 
842.20 	0.0038383 	173280 
842.70 	0.0038383 	173610 
843.20 	0.0038383 	174110 
843.70 	0.0038383 	174780 
844.20 	0.0038383 	175280 
844.70 	0.0038383 	175780 
845.20 	0.0038383 	176440 
845.70 	0.0038383 	176940 
846.20 	0.0038383 	177440 
846.70 	0.0038383 	177940 
847.20 	0.0038383 	178440 
847.70 	0.0038383 	179110 
848.20 	0.0038383 	179610 
848.70 	0.0038383 	180110 
849.20 	0.0038383 	180610 
849.70 	0.0038383 	181270 
850.20 	0.0038383 	181770 
850.70 	0.0038383 	182100 
851.20 	0.0038383 	182770 
851.70 	0.0038383 	183270 
852.20 	0.0038383 	183770 
852.70 	0.0038383 	184430 
853.20 	0.0038383 	184770 
853.70 	0.0038383 	185430 
854.20 	0.0038383 	185930 
854.70 	0.0038383 	186430 
855.20 	0.0038383 	186930 
855.70 	0.0038383 	187600 
856.20 	0.0038383 	188100 
856.70 	0.0038383 	188600 
857.20 	0.0038383 	189090 
857.70 	0.0038383 	189590 
858.20 	0.0038383 	190260 
858.70 	0.0038383 	190590 
859.20 	0.0038383 	191260 
859.70 	0.0038383 	191760 
860.20 	0.0038383 	192260 
860.70 	0.0038383 	192760 
861.20 	0.0038383 	193260 
861.70 	0.0038383 	193760 
862.20 	0.0038383 	194420 
862.70 	0.0038383 	194920 
863.20 	0.0038383 	195420 
863.70 	0.0038383 	195920 
864.20 	0.0038383 	196420 
864.70 	0.0038383 	197080 
865.20 	0.0038383 	197580 
865.70 	0.0038383 	198080 
866.20 	0.0038383 	198580 
866.70 	0.0038383 	199080 
867.20 	0.0038383 	199580 
867.70 	0.0038383 	200080 
868.20 	0.0038383 	200580 
868.70 	0.0038383 	201250 
869.20 	0.0038383 	201750 
869.70 	0.0038383 	202080 
870.20 	0.0038383 	202580 
870.70 	0.0038383 	203410 
871.20 	0.0038383 	203910 
871.70 	0.0038383 	204410 
872.20 	0.0038383 	205070 
872.70 	0.0038383 	205570 
873.20 	0.0038383 	206070 
873.70 	0.0038383 	206570 
874.20 	0.0038383 	207070 
874.70 	0.0038383 	207740 
875.20 	0.0038383 	208240 
875.70 	0.0038383 	208740 
876.20 	0.0038383 	209240 
876.70 	0.0038383 	209740 
877.20 	0.0038383 	210400 
877.70 	0.0038383 	210900 
878.20 	0.0038383 	211400 
878.70 	0.0038383 	211900 
879.20 	0.0038383 	212400 
879.70 	0.0038383 	213060 
880.20 	0.0038383 	213560 
880.70 	0.0038383 	214060 
881.20 	0.0038383 	214560 
881.70 	0.0038383 	215060 
882.20 	0.0038383 	215560 
882.70 	0.0038383 	216230 
883.20 	0.0038383 	216730 
883.70 	0.0038383 	217230 
884.20 	0.0038383 	217730 
884.70 	0.0038383 	218220 
885.20 	0.0038383 	218890 
885.70 	0.0038383 	219390 
886.20 	0.0038383 	219890 
886.70 	0.0038383 	220390 
887.20 	0.0038383 	220890 
887.70 	0.0038383 	221390 
888.20 	0.0038383 	222050 
888.70 	0.0038383 	222550 
889.20 	0.0038383 	223050 
889.70 	0.0038383 	223550 
890.20 	0.0038383 	224050 
890.70 	0.0038383 	224550 
891.20 	0.0038383 	225220 
891.70 	0.0038383 	225720 
892.20 	0.0038383 	226210 
892.70 	0.0038383 	226880 
893.20 	0.0038383 	227380 
893.70 	0.0038383 	227880 
894.20 	0.0038383 	228380 
894.70 	0.0038383 	229040 
895.20 	0.0038383 	229380 
895.70 	0.0038383 	229880 
896.20 	0.0038383 	230540 
896.70 	0.0038383 	231040 
897.20 	0.0038383 	231540 
897.70 	0.0038383 	232040 
898.20 	0.0038383 	232710 
898.70 	0.0038383 	233040 
899.20 	0.0038383 	233710 
899.70 	0.0038383 	234200 
900.20 	0.0038383 	234700 
900.70 	0.0038383 	235200 
901.20 	0.0038383 	235870 
901.70 	0.0038383 	236370 
902.20 	0.0038383 	236870 
902.70 	0.0038383 	237370 
903.20 	0.0038383 	238030 
903.70 	0.0038383 	238530 
904.20 	0.0038383 	238870 
904.70 	0.0038383 	239360 
905.20 	0.0038383 	240030 
905.70 	0.0038383 	240700 
906.20 	0.0038383 	241200 
906.70 	0.0038383 	241530 
907.20 	0.0038383 	242190 
907.70 	0.0038383 	242690 
908.20 	0.0038383 	243190 
908.70 	0.0038383 	243690 
909.20 	0.0038383 	244190 
909.70 	0.0038383 	244860 
910.20 	0.0038383 	245360 
910.70 	0.0038383 	245860 
911.20 	0.0038383 	246520 
911.70 	0.0038383 	247020 
912.20 	0.0038383 	247350 
912.70 	0.0038383 	247850 
913.20 	0.0038383 	248520 
913.70 	0.0038383 	249020 
914.20 	0.0038383 	249520 
914.70 	0.0038383 	250180 
915.20 	0.0038383 	250680 
915.70 	0.0038383 	251180 
916.20 	0.0038383 	251680 
916.70 	0.0038383 	252180 
917.20 	0.0038383 	252680 
917.70 	0.0038383 	253350 
918.20 	0.0038383 	253850 
918.70 	0.0038383 	254510 
919.20 	0.0038383 	254850 
919.70 	0.0038383 	255340 
920.20 	0.0038383 	256010 
920.70 	0.0038383 	256510 
921.20 	0.0038383 	257010 
921.70 	0.0038383 	257510 
922.20 	0.0038383 	258170 
922.70 	0.0038383 	258670 
923.20 	0.0038383 	259170 
923.70 	0.0038383 	259670 
924.20 	0.0038383 	260170 
924.70 	0.0038383 	260670 
925.20 	0.0038383 	261340 
925.70 	0.0038383 	261840 
926.20 	0.0038383 	262340 
926.70 	0.0038383 	262840 
927.20 	0.0038383 	263500 
927.70 	0.0038383 	264000 
928.20 	0.0038383 	264330 
928.70 	0.0038383 	265000 
929.20 	0.0038383 	265500 
929.70 	0.0038383 	266000 
930.20 	0.0038383 	266500 
930.70 	0.0038383 	267160 
931.20 	0.0038383 	267660 
931.70 	0.0038383 	268160 
932.20 	0.0038383 	268660 
932.70 	0.0038383 	269160 
933.20 	0.0038383 	269830 
933.70 	0.0038383 	270330 
934.20 	0.0038383 	270830 
934.70 	0.0038383 	271320 
935.20 	0.0038383 	271990 
935.70 	0.0038383 	272320 
936.20 	0.0038383 	272990 
936.70 	0.0038383 	273490 
937.20 	0.0038383 	273990 
937.70 	0.0038383 	274490 
938.20 	0.0038383 	274990 
938.70 	0.0038383 	275650 
939.20 	0.0038383 	276150 
939.70 	0.0038383 	276650 
940.20 	0.0038383 	277150 
940.70 	0.0038383 	277650 
941.20 	0.0038383 	278320 
941.70 	0.0038383 	278650 
942.20 	0.0038383 	279310 
942.70 	0.0038383 	279810 
943.20 	0.0038383 	280310 
943.70 	0.0038383 	280980 
944.20 	0.0038383 	281480 
944.70 	0.0038383 	281980 
945.20 	0.0038383 	282480 
945.70 	0.0038383 	282980 
946.20 	0.0038383 	283640 
946.70 	0.0038383 	284140 
947.20 	0.0038383 	284470 
947.70 	0.0038383 	285310 
948.20 	0.0038383 	285640 
948.70 	0.0038383 	286140 
949.20 	0.0038383 	286640 
949.70 	0.0038383 	287300 
950.20 	0.0038383 	287800 
950.70 	0.0038383 	288300 
951.20 	0.0038383 	288800 
951.70 	0.0038383 	289300 
952.20 	0.0038383 	289970 
952.70 	0.0038383 	290470 
953.20 	0.0038383 	290970 
953.70 	0.0038383 	291470 
954.20 	0.0038383 	291970 
954.70 	0.0038383 	292460 
955.20 	0.0038383 	293130 
955.70 	0.0038383 	293630 
956.20 	0.0038383 	294130 
956.70 	0.0038383 	294790 
957.20 	0.0038383 	295290 
957.70 	0.0038383 	295790 
958.20 	0.0038383 	296290 
958.70 	0.0038383 	296790 
959.20 	0.0038383 	297290 
959.70 	0.0038383 	297790 
960.20 	0.0038383 	298290 
960.70 	0.0038383 	298960 
961.20 	0.0038383 	299460 
961.70 	0.0038383 	299960 
962.20 	0.0038383 	300450 
962.70 	0.0038383 	301120 
963.20 	0.0038383 	301620 
963.70 	0.0038383 	302120 
964.20 	0.0038383 	302620 
964.70 	0.0038383 	303120 
965.20 	0.0038383 	303620 
965.70 	0.0038383 	304280 
966.20 	0.0038383 	304620 
966.70 	0.0038383 	305280 
967.20 	0.0038383 	305610 
967.70 	0.0038383 	306280 
968.20 	0.0038383 	306950 
968.70 	0.0038383 	307450 
969.20 	0.0038383 	307950 
969.70 	0.0038383 	308440 
970.20 	0.0038383 	308940 
970.70 	0.0038383 	309610 
971.20 	0.0038383 	310110 
971.70 	0.0038383 	310440 
972.20 	0.0038383 	311110 
972.70 	0.0038383 	311610 
973.20 	0.0038383 	312270 
973.70 	0.0038383 	312770 
974.20 	0.0038383 	313110 
974.70 	0.0038383 	313770 
975.20 	0.0038383 	314270 
975.70 	0.0038383 	314770 
976.20 	0.0038383 	315270 
976.70 	0.0038383 	315930 
977.20 	0.0038383 	316430 
977.70 	0.0038383 	316930 
978.20 	0.0038383 	317430 
978.70 	0.0038383 	317930 
979.20 	0.0038383 	318430 
979.70 	0.0038383 	318930 
980.20 	0.0038383 	319600 
980.70 	0.0038383 	320100 
981.20 	0.0038383 	320600 
981.70 	0.0038383 	321100 
982.20 	0.0038383 	321760 
982.70 	0.0038383 	322260 
983.20 	0.0038383 	322760 
983.70 	0.0038383 	323260 
984.20 	0.0038383 	323760 
984.70 	0.0038383 	324420 
985.20 	0.0038383 	324760 
985.70 	0.0038383 	325260 
986.20 	0.0038383 	325420 
986.70 	0.0038383 	326260 
987.20 	0.0038383 	326590 
987.70 	0.0038383 	327090 
988.20 	0.0038383 	326920 
988.70 	0.0038383 	327090 
989.15 	0.0038383 	324590 
989.25 	0.0038383 	322260 
989.33 	0.0038383 	319930 
989.40 	0.0038383 	311440 
989.42 	0.0038383 	212730 
