Tempo(s)	Deformação(mm)	Força(N)
 0.016667 	-0.0002136 	166.46 
0.51667 	-0.0002136 	0.00000 
0.90000 	0.00010662 	665.83 
1.1667 	0.00053309 	832.28 
1.4000 	0.00095956 	998.74 
1.6000 	0.0013860 	1331.7 
2.1000 	0.0017059 	1498.1 
2.6000 	0.0019191 	1831.0 
3.1000 	0.0022390 	1831.0 
3.3333 	0.0026655 	2330.4 
3.4500 	0.0030919 	2330.4 
3.5500 	0.0035184 	2663.3 
3.6667 	0.0039449 	2829.8 
3.8167 	0.0043713 	2996.2 
4.0000 	0.0047978 	3495.6 
4.2333 	0.0052243 	3662.0 
4.6833 	0.0056508 	4161.4 
4.8333 	0.0060772 	4161.4 
4.9500 	0.0065037 	4327.9 
5.0667 	0.0069302 	4494.3 
5.1667 	0.0073566 	4660.8 
5.2833 	0.0077831 	4993.7 
5.3833 	0.0082096 	5160.2 
5.4500 	0.0086361 	5160.2 
5.5333 	0.0090625 	5493.1 
5.6167 	0.0094890 	5659.5 
5.6833 	0.010022 	5826.0 
5.7667 	0.010555 	6158.9 
5.8333 	0.010982 	6325.4 
5.9167 	0.011515 	6325.4 
5.9833 	0.011941 	6491.8 
6.0500 	0.012368 	6824.7 
6.1167 	0.012794 	7157.6 
6.1833 	0.013327 	7324.1 
6.2500 	0.013754 	7157.6 
6.3167 	0.014287 	7657.0 
6.3833 	0.014713 	7823.5 
6.4500 	0.015140 	7823.5 
6.5167 	0.015566 	7989.9 
6.5667 	0.015993 	8156.4 
6.6333 	0.016526 	8322.8 
6.7000 	0.016952 	8655.8 
6.7500 	0.017379 	8822.2 
6.8000 	0.017805 	9155.1 
6.8667 	0.018338 	9155.1 
6.9333 	0.018765 	9654.5 
7.0000 	0.019298 	9654.5 
7.0667 	0.019724 	9820.9 
7.1167 	0.020151 	9820.9 
7.1833 	0.020684 	10154 
7.2500 	0.021110 	10320 
7.3000 	0.021537 	10487 
7.3500 	0.021963 	10653 
7.4000 	0.022390 	10820 
7.4500 	0.022816 	10820 
7.5000 	0.023243 	11319 
7.5500 	0.023669 	11153 
7.6167 	0.024096 	11486 
7.6667 	0.024522 	11319 
7.7333 	0.025055 	11818 
7.8000 	0.025482 	11985 
7.8500 	0.025908 	11985 
7.9167 	0.026335 	12151 
7.9667 	0.026761 	12318 
8.0167 	0.027188 	12484 
8.0667 	0.027614 	12484 
8.1333 	0.028147 	12817 
8.1833 	0.028574 	12984 
8.2333 	0.029000 	12984 
8.2833 	0.029533 	13150 
8.3167 	0.029960 	13150 
8.3667 	0.030386 	13150 
8.4167 	0.030919 	13483 
8.4667 	0.031346 	13317 
8.5333 	0.031772 	13649 
8.6000 	0.032199 	13816 
8.6500 	0.032625 	13816 
8.7500 	0.033052 	13982 
8.8500 	0.033478 	14149 
8.9667 	0.034011 	14315 
9.0833 	0.034438 	14482 
9.1667 	0.034864 	14815 
9.2833 	0.035291 	14815 
9.3667 	0.035717 	14981 
9.4500 	0.036144 	15314 
9.5333 	0.036570 	15480 
9.6333 	0.036996 	15647 
9.7667 	0.037423 	16146 
9.8333 	0.037849 	16313 
9.9167 	0.038276 	16479 
10.000 	0.038702 	16812 
10.083 	0.039129 	16979 
10.167 	0.039555 	17145 
10.250 	0.039982 	17478 
10.333 	0.040408 	17478 
10.417 	0.040835 	17811 
10.517 	0.041261 	17977 
10.600 	0.041688 	18310 
10.683 	0.042114 	18477 
10.783 	0.042541 	18643 
10.883 	0.042967 	18810 
10.967 	0.043394 	18976 
11.067 	0.043820 	19143 
11.283 	0.043820 	19808 
11.367 	0.043287 	19975 
11.583 	0.043713 	20308 
11.700 	0.044140 	20641 
11.817 	0.044566 	20974 
11.933 	0.044993 	20974 
12.083 	0.045419 	21306 
12.250 	0.045846 	21473 
12.367 	0.046272 	21806 
12.483 	0.046699 	21972 
12.600 	0.047125 	22305 
12.700 	0.047552 	22472 
12.817 	0.047978 	22638 
12.900 	0.048405 	22805 
13.017 	0.048831 	23137 
13.100 	0.049258 	23470 
13.217 	0.049684 	23637 
13.317 	0.050111 	23637 
13.400 	0.050537 	23970 
13.517 	0.050963 	24136 
13.617 	0.051390 	24469 
13.717 	0.051816 	24636 
13.817 	0.052243 	24802 
13.900 	0.052669 	24969 
14.017 	0.053096 	25135 
14.117 	0.053522 	25468 
14.233 	0.053949 	25634 
14.333 	0.054375 	25967 
14.433 	0.054802 	25967 
14.550 	0.055228 	26300 
14.633 	0.055655 	26300 
14.767 	0.056081 	26633 
14.867 	0.056508 	26800 
14.983 	0.056934 	26966 
15.117 	0.057361 	27132 
15.200 	0.057787 	27299 
15.267 	0.058213 	27465 
15.383 	0.058640 	27632 
15.483 	0.059173 	27965 
15.583 	0.059600 	28131 
15.667 	0.060026 	28298 
15.767 	0.060452 	28464 
15.850 	0.060879 	28464 
15.933 	0.061305 	28631 
16.000 	0.061732 	28797 
16.083 	0.062158 	28963 
16.150 	0.062585 	29130 
16.233 	0.063011 	29130 
16.300 	0.063544 	29296 
16.367 	0.063971 	29463 
16.450 	0.064397 	29463 
16.517 	0.064824 	29629 
16.600 	0.065250 	29796 
16.683 	0.065677 	29962 
16.800 	0.066103 	30129 
17.050 	0.065677 	30628 
17.083 	0.065250 	30628 
17.583 	0.065250 	31294 
17.833 	0.065677 	31294 
18.117 	0.066103 	31460 
18.300 	0.066530 	31627 
18.450 	0.066956 	31627 
18.583 	0.067383 	31793 
18.717 	0.067809 	31960 
18.800 	0.068236 	31960 
18.917 	0.068769 	31960 
19.400 	0.069302 	32126 
19.483 	0.068769 	32126 
19.550 	0.068236 	32126 
20.050 	0.068449 	32293 
20.550 	0.068875 	32293 
21.050 	0.069089 	32293 
21.550 	0.069302 	32459 
22.050 	0.069622 	32459 
22.550 	0.069728 	32459 
23.050 	0.070048 	32626 
23.550 	0.070475 	32626 
23.933 	0.069941 	32626 
24.433 	0.069622 	32626 
24.933 	0.069622 	32626 
25.433 	0.069515 	32626 
25.933 	0.069622 	32626 
26.433 	0.069622 	32626 
26.900 	0.069089 	32459 
27.400 	0.069408 	32626 
27.867 	0.069941 	32626 
28.367 	0.070368 	32626 
28.867 	0.070368 	32626 
29.367 	0.070794 	32626 
29.767 	0.071328 	32459 
30.267 	0.071754 	32626 
30.417 	0.071221 	32626 
30.917 	0.071114 	32626 
31.417 	0.071114 	32792 
31.917 	0.070901 	32626 
32.417 	0.070901 	32459 
32.917 	0.071008 	32626 
33.417 	0.070794 	32459 
33.917 	0.070794 	32626 
34.417 	0.071114 	32626 
34.800 	0.071647 	32626 
35.083 	0.072180 	32626 
35.433 	0.072714 	32626 
35.683 	0.073247 	32626 
35.817 	0.073780 	32459 
35.883 	0.074419 	32626 
35.967 	0.074953 	32459 
36.050 	0.075486 	32626 
36.317 	0.074953 	32626 
36.333 	0.073886 	32626 
36.750 	0.073033 	32626 
36.800 	0.072500 	32626 
37.300 	0.072074 	32459 
37.750 	0.071434 	32626 
38.250 	0.071647 	32792 
38.750 	0.071647 	32626 
39.250 	0.071861 	32792 
39.750 	0.071861 	32626 
40.250 	0.072074 	32459 
40.750 	0.072287 	32626 
41.250 	0.072180 	32626 
41.750 	0.072180 	32626 
42.250 	0.072287 	32626 
42.750 	0.072180 	32792 
43.250 	0.072180 	32626 
43.750 	0.072180 	32626 
43.917 	0.071541 	32459 
44.417 	0.071328 	32792 
44.917 	0.071434 	32459 
45.417 	0.071541 	32626 
45.917 	0.071647 	32626 
46.417 	0.071328 	32626 
46.917 	0.071541 	32626 
47.417 	0.071541 	32626 
47.917 	0.071434 	32626 
48.417 	0.071434 	32459 
48.917 	0.071434 	32626 
49.417 	0.071434 	32792 
49.917 	0.071328 	32626 
50.417 	0.071434 	32626 
50.917 	0.071434 	32626 
51.417 	0.071647 	32626 
51.917 	0.071754 	32626 
52.050 	0.071221 	32626 
52.150 	0.070688 	32626 
52.650 	0.070581 	32459 
53.150 	0.070581 	32792 
53.650 	0.070581 	32626 
54.150 	0.070581 	32626 
54.650 	0.070581 	32626 
55.150 	0.070794 	32626 
55.650 	0.070794 	32626 
56.150 	0.071008 	32626 
56.650 	0.071434 	32626 
57.150 	0.071754 	32626 
57.650 	0.071967 	32626 
58.150 	0.072287 	32626 
58.650 	0.072394 	32626 
59.150 	0.072607 	32626 
59.650 	0.072820 	32626 
60.150 	0.072927 	32626 
60.650 	0.072820 	32626 
61.150 	0.072820 	32626 
61.650 	0.072927 	32626 
62.150 	0.072927 	32626 
62.650 	0.072500 	32626 
63.150 	0.072500 	32626 
63.650 	0.072500 	32626 
64.150 	0.072500 	32626 
64.650 	0.072607 	32626 
65.150 	0.072607 	32626 
65.650 	0.072714 	32626 
66.150 	0.072820 	32626 
66.650 	0.072820 	32626 
67.150 	0.073033 	32626 
67.650 	0.073033 	32626 
68.150 	0.073247 	32626 
68.650 	0.073353 	32459 
69.150 	0.073566 	32626 
69.650 	0.073780 	32626 
70.150 	0.073993 	32626 
70.283 	0.073460 	32626 
70.483 	0.072927 	32626 
70.833 	0.072394 	32792 
71.333 	0.071967 	32459 
71.833 	0.071754 	32626 
72.333 	0.071754 	32626 
72.833 	0.071754 	32626 
73.333 	0.071754 	32626 
73.833 	0.071647 	32626 
74.333 	0.071647 	32626 
74.833 	0.071541 	32626 
75.033 	0.071008 	32626 
75.533 	0.070901 	32626 
76.033 	0.071008 	32459 
76.533 	0.071008 	32626 
77.033 	0.071114 	32626 
77.533 	0.071114 	32459 
77.933 	0.070901 	31793 
78.433 	0.070581 	31294 
78.767 	0.070048 	30795 
79.100 	0.069515 	30462 
79.400 	0.068982 	29962 
79.683 	0.068449 	29463 
79.883 	0.067916 	28963 
80.067 	0.067383 	28631 
80.283 	0.066850 	28298 
80.467 	0.066316 	27798 
80.667 	0.065783 	27465 
80.850 	0.065250 	26966 
81.067 	0.064717 	26633 
81.267 	0.064184 	26300 
81.483 	0.063651 	25634 
81.700 	0.063118 	25468 
81.967 	0.062691 	24802 
82.167 	0.062158 	24469 
82.517 	0.061625 	23970 
82.833 	0.061092 	23470 
83.083 	0.060559 	22971 
83.283 	0.060026 	22638 
83.433 	0.059493 	22305 
83.517 	0.058960 	22139 
83.617 	0.058427 	21806 
83.733 	0.057894 	21639 
83.900 	0.057361 	21306 
84.000 	0.056827 	21140 
84.117 	0.056294 	20974 
84.267 	0.055761 	20641 
84.400 	0.055228 	20308 
84.533 	0.054695 	19975 
84.683 	0.054162 	19808 
84.867 	0.053629 	19309 
85.050 	0.053096 	19143 
85.183 	0.052563 	18810 
85.367 	0.052030 	18477 
85.533 	0.051497 	18144 
85.683 	0.050963 	17977 
85.867 	0.050430 	17644 
86.067 	0.049897 	17312 
86.283 	0.049364 	16979 
86.533 	0.048831 	16812 
86.800 	0.048298 	16479 
86.950 	0.047765 	15980 
87.067 	0.047232 	15813 
87.200 	0.046592 	15314 
87.317 	0.046059 	15148 
87.433 	0.045526 	14815 
87.567 	0.044993 	14482 
87.683 	0.044460 	14315 
87.800 	0.043927 	13982 
87.917 	0.043394 	13649 
87.983 	0.042860 	13483 
88.083 	0.042327 	13317 
88.167 	0.041794 	13317 
88.283 	0.041261 	12984 
88.383 	0.040728 	12651 
88.500 	0.040195 	12484 
88.617 	0.039662 	12318 
88.750 	0.039129 	11985 
88.883 	0.038596 	11652 
89.000 	0.038063 	11652 
89.133 	0.037530 	11153 
89.267 	0.036996 	11153 
89.400 	0.036463 	10653 
89.533 	0.035930 	10320 
89.683 	0.035397 	10154 
89.800 	0.034864 	10154 
89.933 	0.034331 	9820.9 
90.067 	0.033798 	9321.6 
90.183 	0.033265 	9155.1 
90.317 	0.032732 	8822.2 
90.450 	0.032199 	8988.7 
90.567 	0.031666 	8489.3 
90.683 	0.031132 	8322.8 
90.817 	0.030599 	7989.9 
90.950 	0.030066 	7989.9 
91.100 	0.029533 	7490.6 
91.233 	0.029000 	7324.1 
91.383 	0.028467 	7157.6 
91.550 	0.027934 	6824.7 
91.700 	0.027401 	6491.8 
91.850 	0.026868 	6158.9 
91.950 	0.026335 	6158.9 
92.050 	0.025802 	6158.9 
92.183 	0.025268 	5826.0 
92.333 	0.024735 	5493.1 
92.450 	0.024202 	5493.1 
92.583 	0.023669 	5160.2 
92.700 	0.023136 	4993.7 
92.833 	0.022603 	4827.2 
92.983 	0.022070 	4660.8 
93.100 	0.021537 	4327.9 
93.250 	0.021004 	4327.9 
93.417 	0.020471 	3995.0 
93.567 	0.019938 	3995.0 
93.750 	0.019404 	3828.5 
93.983 	0.018871 	3662.0 
94.183 	0.018338 	3828.5 
94.583 	0.017805 	3662.0 
94.900 	0.017272 	3329.1 
95.167 	0.016739 	3329.1 
95.467 	0.016206 	3162.7 
95.833 	0.015673 	2996.2 
96.333 	0.015246 	2996.2 
96.833 	0.014927 	2829.8 
97.333 	0.014607 	2996.2 
97.833 	0.014393 	2829.8 
98.333 	0.014287 	2663.3 
98.833 	0.014074 	2663.3 
99.333 	0.013967 	2663.3 
99.817 	0.013434 	2663.3 
100.32 	0.013114 	2496.9 
100.52 	0.012581 	2496.9 
101.02 	0.012154 	2496.9 
101.52 	0.012048 	2496.9 
102.02 	0.011835 	2496.9 
102.52 	0.011621 	2330.4 
103.02 	0.011515 	2496.9 
103.52 	0.011408 	2330.4 
104.02 	0.011408 	2496.9 
104.52 	0.011302 	2330.4 
105.02 	0.011302 	2330.4 
105.52 	0.011195 	2330.4 
106.02 	0.011195 	2330.4 
106.52 	0.011088 	2330.4 
107.02 	0.011088 	2330.4 
107.52 	0.010982 	2330.4 
108.02 	0.011088 	2330.4 
108.52 	0.011088 	2330.4 
109.02 	0.010982 	2330.4 
109.52 	0.010982 	2330.4 
110.02 	0.010982 	2330.4 
110.52 	0.010982 	2330.4 
111.02 	0.010875 	2330.4 
111.52 	0.010875 	2163.9 
112.02 	0.010875 	2163.9 
112.52 	0.010875 	2163.9 
113.02 	0.010875 	2163.9 
113.52 	0.010768 	2163.9 
114.02 	0.010875 	2163.9 
114.52 	0.010768 	2163.9 
115.02 	0.010768 	2163.9 
115.52 	0.010768 	2163.9 
116.02 	0.010768 	2163.9 
116.52 	0.010768 	2163.9 
117.02 	0.010768 	2163.9 
117.52 	0.010768 	2163.9 
118.02 	0.010662 	2163.9 
118.52 	0.010662 	2163.9 
119.02 	0.010768 	2163.9 
119.52 	0.010875 	2163.9 
120.02 	0.010875 	2163.9 
120.52 	0.010768 	2163.9 
121.02 	0.010982 	2163.9 
121.52 	0.010982 	2163.9 
122.02 	0.010982 	2330.4 
122.52 	0.011088 	2163.9 
123.02 	0.010982 	2163.9 
123.52 	0.011088 	2163.9 
124.02 	0.010982 	2163.9 
124.52 	0.011088 	2163.9 
125.02 	0.011088 	2163.9 
125.52 	0.011088 	2163.9 
126.02 	0.011088 	2163.9 
126.52 	0.011088 	2163.9 
126.90 	0.010555 	2163.9 
127.40 	0.010449 	2163.9 
127.90 	0.010342 	2163.9 
128.40 	0.010342 	2163.9 
128.90 	0.010449 	2163.9 
129.40 	0.010449 	2163.9 
129.90 	0.010449 	2163.9 
130.40 	0.010342 	2163.9 
130.90 	0.010449 	2163.9 
131.40 	0.010449 	1997.5 
131.90 	0.010342 	2163.9 
132.40 	0.010449 	2163.9 
132.90 	0.010449 	2330.4 
133.40 	0.010449 	2163.9 
133.90 	0.010555 	1997.5 
134.40 	0.010555 	2163.9 
134.90 	0.010555 	2163.9 
135.40 	0.010662 	2163.9 
135.90 	0.010555 	2163.9 
136.40 	0.010555 	2163.9 
136.90 	0.010662 	2163.9 
137.40 	0.010662 	2163.9 
137.90 	0.010555 	2163.9 
138.40 	0.010555 	2163.9 
138.90 	0.010555 	2163.9 
139.40 	0.010662 	2163.9 
139.90 	0.010555 	2163.9 
140.40 	0.010555 	2163.9 
140.90 	0.010555 	2163.9 
141.40 	0.010342 	2163.9 
141.90 	0.010129 	2163.9 
142.40 	0.010129 	2163.9 
142.90 	0.010022 	2163.9 
143.40 	0.010022 	2163.9 
143.90 	0.010022 	2163.9 
144.40 	0.0099155 	2163.9 
144.90 	0.0099155 	2163.9 
145.40 	0.010022 	2163.9 
145.90 	0.0099155 	2163.9 
146.40 	0.0099155 	2163.9 
146.90 	0.0098089 	2163.9 
147.40 	0.0098089 	2163.9 
147.90 	0.0097022 	2330.4 
148.40 	0.0098089 	2163.9 
148.90 	0.0097022 	2163.9 
149.40 	0.0097022 	2163.9 
149.90 	0.0098089 	2163.9 
150.40 	0.0097022 	2330.4 
150.90 	0.0097022 	2163.9 
151.40 	0.0095956 	2163.9 
151.90 	0.0097022 	1997.5 
152.40 	0.0097022 	2163.9 
152.90 	0.0095956 	1997.5 
153.40 	0.0097022 	2163.9 
153.90 	0.0097022 	2163.9 
154.40 	0.0095956 	2163.9 
154.90 	0.0095956 	2163.9 
155.40 	0.0095956 	2163.9 
155.90 	0.0098089 	2496.9 
156.40 	0.010235 	2829.8 
156.80 	0.010768 	2996.2 
157.12 	0.011302 	3329.1 
157.42 	0.011835 	3662.0 
157.73 	0.012368 	4161.4 
158.05 	0.012901 	4161.4 
158.27 	0.013434 	4660.8 
158.42 	0.013967 	4993.7 
158.60 	0.014500 	5160.2 
158.72 	0.015033 	5493.1 
158.87 	0.015566 	5826.0 
158.98 	0.016099 	5992.4 
159.10 	0.016632 	6158.9 
159.22 	0.017166 	6325.4 
159.33 	0.017699 	6824.7 
159.43 	0.018232 	6991.2 
159.55 	0.018871 	7157.6 
159.65 	0.019404 	7324.1 
159.75 	0.019938 	7823.5 
159.83 	0.020471 	7989.9 
159.93 	0.021004 	8156.4 
160.02 	0.021537 	8156.4 
160.08 	0.022070 	8322.8 
160.15 	0.022710 	8489.3 
160.20 	0.023243 	8822.2 
160.25 	0.023882 	8988.7 
160.30 	0.024522 	9155.1 
160.38 	0.025162 	9321.6 
160.45 	0.025695 	9321.6 
160.65 	0.026228 	9820.9 
160.77 	0.026761 	9987.4 
160.92 	0.027294 	10487 
161.02 	0.027827 	10820 
161.15 	0.028360 	10986 
161.28 	0.028894 	11319 
161.47 	0.029427 	11818 
161.58 	0.029960 	11985 
161.70 	0.030493 	12318 
161.85 	0.031026 	12484 
161.98 	0.031559 	12984 
162.12 	0.032092 	13150 
162.25 	0.032625 	13317 
162.38 	0.033158 	13649 
162.53 	0.033691 	13816 
162.70 	0.034224 	14149 
162.85 	0.034758 	14315 
163.30 	0.035291 	15148 
163.43 	0.035824 	15314 
163.53 	0.036357 	15647 
163.68 	0.036890 	15980 
163.80 	0.037530 	16313 
163.93 	0.038063 	16646 
164.03 	0.038596 	16812 
164.15 	0.039129 	17145 
164.27 	0.039662 	17478 
164.40 	0.040195 	17644 
164.50 	0.040728 	17977 
164.63 	0.041261 	18310 
164.75 	0.041794 	18477 
164.87 	0.042327 	18810 
165.00 	0.042860 	18976 
165.12 	0.043394 	19309 
165.27 	0.043927 	19475 
165.42 	0.044460 	19975 
165.53 	0.044993 	20141 
165.70 	0.045526 	20474 
165.85 	0.046059 	20807 
165.98 	0.046592 	21140 
166.15 	0.047125 	21306 
166.33 	0.047658 	21473 
166.53 	0.048191 	21972 
166.68 	0.048724 	22305 
166.82 	0.049258 	22638 
166.93 	0.049791 	22805 
167.07 	0.050324 	23137 
167.20 	0.050857 	23470 
167.33 	0.051390 	23803 
167.47 	0.051923 	23970 
167.58 	0.052456 	24303 
167.73 	0.052989 	24469 
167.88 	0.053522 	24802 
168.05 	0.054055 	25135 
168.20 	0.054588 	25468 
168.35 	0.055122 	25634 
168.50 	0.055655 	25967 
168.65 	0.056188 	26134 
168.80 	0.056721 	26467 
168.95 	0.057254 	26800 
169.15 	0.057787 	27132 
169.32 	0.058320 	27465 
169.47 	0.058853 	27798 
169.63 	0.059386 	28131 
169.80 	0.059919 	28464 
169.98 	0.060452 	28797 
170.17 	0.060986 	29130 
170.35 	0.061519 	29463 
170.53 	0.062052 	29629 
170.73 	0.062585 	30129 
170.92 	0.063118 	30295 
171.10 	0.063651 	30628 
171.33 	0.064184 	30961 
171.62 	0.064717 	31127 
171.95 	0.065250 	31460 
172.30 	0.065783 	31793 
172.72 	0.066316 	31960 
173.22 	0.066743 	32126 
173.72 	0.067169 	32293 
174.22 	0.067383 	32293 
174.72 	0.067596 	32459 
175.22 	0.067809 	32459 
175.72 	0.067916 	32626 
176.22 	0.068022 	32626 
176.72 	0.068022 	32626 
177.22 	0.067916 	32626 
177.72 	0.067916 	32626 
178.22 	0.067809 	32626 
178.72 	0.067809 	32792 
179.22 	0.067809 	32459 
179.72 	0.067809 	32626 
180.22 	0.067809 	32626 
180.72 	0.067916 	32626 
181.22 	0.067916 	32626 
181.72 	0.067916 	32626 
182.22 	0.067916 	32626 
182.72 	0.067916 	32626 
183.22 	0.067916 	32626 
183.72 	0.067916 	32626 
184.22 	0.067916 	32626 
184.72 	0.068022 	32626 
185.22 	0.068022 	32626 
185.72 	0.068022 	32626 
186.22 	0.068022 	32626 
186.72 	0.068022 	32626 
187.22 	0.068022 	32626 
187.72 	0.068129 	32626 
188.22 	0.068022 	32626 
188.72 	0.068129 	32626 
189.22 	0.068129 	32626 
189.72 	0.068129 	32626 
190.22 	0.068129 	32626 
190.72 	0.068129 	32626 
191.22 	0.068129 	32626 
191.72 	0.068022 	32626 
192.22 	0.068129 	32626 
192.72 	0.068129 	32626 
193.22 	0.068129 	32626 
193.72 	0.068129 	32792 
194.22 	0.068129 	32626 
194.72 	0.068129 	32626 
195.22 	0.068129 	32626 
195.72 	0.068129 	32626 
196.22 	0.068129 	32459 
196.72 	0.068129 	32626 
197.22 	0.068129 	32626 
197.72 	0.068129 	32626 
198.22 	0.068236 	32626 
198.72 	0.068129 	32626 
199.22 	0.068236 	32792 
199.72 	0.068129 	32626 
200.22 	0.068129 	32459 
200.72 	0.068236 	32626 
201.22 	0.068129 	32626 
201.72 	0.068129 	32459 
202.22 	0.068236 	32792 
202.72 	0.068236 	32626 
203.22 	0.068236 	32626 
203.72 	0.068236 	32626 
204.22 	0.068129 	32626 
204.72 	0.068236 	32626 
205.22 	0.068236 	32626 
205.72 	0.068236 	32626 
206.22 	0.068236 	32626 
206.72 	0.068236 	32626 
207.22 	0.068236 	32626 
207.72 	0.068236 	32626 
208.22 	0.068236 	32626 
208.72 	0.068236 	32626 
209.22 	0.068236 	32626 
209.72 	0.068236 	32626 
210.22 	0.068129 	32626 
210.72 	0.068236 	32626 
211.22 	0.068236 	32626 
211.72 	0.068236 	32626 
212.22 	0.068236 	32626 
212.72 	0.068236 	32626 
213.22 	0.068236 	32459 
213.72 	0.068236 	32626 
214.22 	0.068236 	32626 
214.72 	0.068236 	32626 
215.22 	0.068236 	32626 
215.72 	0.068236 	32626 
216.22 	0.068236 	32626 
216.72 	0.068236 	32626 
217.22 	0.068342 	32626 
217.72 	0.068342 	32626 
218.22 	0.068342 	32626 
218.72 	0.068342 	32626 
219.22 	0.068342 	32626 
219.72 	0.068342 	32626 
220.22 	0.068342 	32626 
220.72 	0.068342 	32459 
221.22 	0.068342 	32626 
221.72 	0.068342 	32626 
222.22 	0.068449 	32626 
222.72 	0.068342 	32626 
223.22 	0.068342 	32626 
223.72 	0.068449 	32626 
224.22 	0.068449 	32459 
224.72 	0.068449 	32626 
225.22 	0.068449 	32626 
225.72 	0.068449 	32459 
226.22 	0.068449 	32626 
226.72 	0.068555 	32626 
227.22 	0.068555 	32626 
227.72 	0.068555 	32626 
228.22 	0.068555 	32626 
228.72 	0.068555 	32626 
229.22 	0.068555 	32626 
229.72 	0.068555 	32626 
230.22 	0.068662 	32626 
230.72 	0.068662 	32626 
231.22 	0.068662 	32626 
231.72 	0.068662 	32293 
232.05 	0.068449 	31627 
232.48 	0.067916 	31127 
232.80 	0.067383 	30961 
233.05 	0.066850 	30462 
233.30 	0.066316 	30129 
233.58 	0.065783 	29796 
233.80 	0.065250 	29296 
234.00 	0.064717 	28963 
234.20 	0.064184 	28464 
234.35 	0.063651 	28131 
234.55 	0.063118 	27798 
234.73 	0.062585 	27299 
234.93 	0.062052 	26966 
235.10 	0.061519 	26633 
235.28 	0.060986 	26300 
235.47 	0.060452 	25801 
235.65 	0.059919 	25468 
235.85 	0.059386 	25135 
236.03 	0.058853 	24802 
236.25 	0.058320 	24303 
236.52 	0.057787 	24136 
236.77 	0.057254 	23637 
236.95 	0.056721 	23304 
237.13 	0.056188 	22805 
237.28 	0.055655 	22472 
237.45 	0.055122 	22305 
237.63 	0.054588 	21806 
237.83 	0.054055 	21473 
238.02 	0.053522 	20974 
238.17 	0.052989 	20807 
238.35 	0.052456 	20474 
238.55 	0.051923 	20141 
238.73 	0.051390 	19808 
238.92 	0.050857 	19475 
239.08 	0.050324 	18976 
239.28 	0.049791 	18643 
239.45 	0.049258 	18477 
239.65 	0.048724 	17977 
239.82 	0.048191 	17811 
240.00 	0.047658 	17478 
240.20 	0.047125 	17145 
240.47 	0.046592 	16979 
240.77 	0.046059 	16479 
240.92 	0.045526 	16146 
241.03 	0.044993 	15813 
241.15 	0.044460 	15480 
241.25 	0.043927 	15314 
241.35 	0.043394 	15148 
241.47 	0.042860 	14648 
241.55 	0.042327 	14482 
241.63 	0.041794 	14482 
241.73 	0.041261 	14149 
241.82 	0.040728 	13982 
241.93 	0.040195 	13649 
242.03 	0.039662 	13317 
242.15 	0.039129 	13317 
242.25 	0.038596 	12984 
242.35 	0.038063 	12817 
242.47 	0.037530 	12484 
242.58 	0.036996 	12318 
242.70 	0.036463 	11985 
242.83 	0.035930 	11818 
242.95 	0.035397 	11486 
243.07 	0.034864 	11319 
243.18 	0.034331 	11153 
243.32 	0.033798 	10986 
243.43 	0.033265 	10653 
243.57 	0.032732 	10487 
243.70 	0.032199 	10154 
243.82 	0.031666 	9987.4 
243.93 	0.031132 	9654.5 
244.07 	0.030599 	9488.0 
244.20 	0.030066 	9155.1 
244.30 	0.029533 	8988.7 
244.42 	0.029000 	8988.7 
244.55 	0.028467 	8489.3 
244.70 	0.027934 	8322.8 
244.82 	0.027401 	7989.9 
244.95 	0.026868 	7989.9 
245.05 	0.026335 	7823.5 
245.17 	0.025802 	7657.0 
245.30 	0.025268 	7324.1 
245.42 	0.024735 	7157.6 
245.52 	0.024202 	6991.2 
245.63 	0.023669 	6658.3 
245.75 	0.023136 	6325.4 
245.87 	0.022603 	6158.9 
245.98 	0.022070 	5992.4 
246.10 	0.021537 	5826.0 
246.22 	0.021004 	5659.5 
246.33 	0.020471 	5659.5 
246.45 	0.019938 	5493.1 
246.55 	0.019404 	4993.7 
246.67 	0.018871 	4827.2 
246.77 	0.018338 	4827.2 
246.90 	0.017805 	4660.8 
247.02 	0.017272 	4494.3 
247.13 	0.016739 	4327.9 
247.28 	0.016206 	4161.4 
247.43 	0.015673 	4161.4 
247.60 	0.015140 	3995.0 
247.80 	0.014607 	3828.5 
247.98 	0.014074 	3828.5 
248.22 	0.013540 	3662.0 
248.70 	0.013007 	3495.6 
248.97 	0.012474 	3329.1 
249.27 	0.011941 	3162.7 
249.67 	0.011408 	3162.7 
250.15 	0.010875 	3162.7 
250.65 	0.010449 	2829.8 
251.15 	0.010129 	2829.8 
251.65 	0.0098089 	2663.3 
252.15 	0.0094890 	2663.3 
252.65 	0.0092758 	2663.3 
253.15 	0.0090625 	2663.3 
253.65 	0.0088493 	2663.3 
254.15 	0.0087427 	2496.9 
254.65 	0.0086361 	2496.9 
255.15 	0.0084228 	2496.9 
255.65 	0.0083162 	2496.9 
256.15 	0.0082096 	2496.9 
256.65 	0.0081030 	2496.9 
257.15 	0.0079964 	2330.4 
257.65 	0.0078897 	2496.9 
258.15 	0.0078897 	2330.4 
258.65 	0.0077831 	2330.4 
259.15 	0.0076765 	2330.4 
259.65 	0.0076765 	2330.4 
260.15 	0.0076765 	2330.4 
260.65 	0.0075699 	2330.4 
261.15 	0.0075699 	2330.4 
261.65 	0.0074633 	2330.4 
262.15 	0.0073566 	2330.4 
262.65 	0.0073566 	2330.4 
263.15 	0.0073566 	2330.4 
263.65 	0.0072500 	2330.4 
264.15 	0.0072500 	2330.4 
264.65 	0.0071434 	2163.9 
265.15 	0.0070368 	2330.4 
265.65 	0.0070368 	2330.4 
266.15 	0.0070368 	2163.9 
266.65 	0.0069302 	2163.9 
267.15 	0.0069302 	2163.9 
267.65 	0.0069302 	2163.9 
268.15 	0.0068236 	2163.9 
268.65 	0.0068236 	2163.9 
269.15 	0.0068236 	2163.9 
269.65 	0.0067169 	2163.9 
270.15 	0.0068236 	2163.9 
270.65 	0.0067169 	2163.9 
271.15 	0.0067169 	2163.9 
271.65 	0.0067169 	2330.4 
272.15 	0.0067169 	2163.9 
272.65 	0.0066103 	2163.9 
273.15 	0.0066103 	2163.9 
273.65 	0.0067169 	2163.9 
274.15 	0.0067169 	2163.9 
274.65 	0.0067169 	2163.9 
275.15 	0.0066103 	2163.9 
275.65 	0.0066103 	2163.9 
276.15 	0.0066103 	2163.9 
276.65 	0.0066103 	2163.9 
277.15 	0.0065037 	2163.9 
277.65 	0.0065037 	2163.9 
278.15 	0.0065037 	2163.9 
278.65 	0.0066103 	2163.9 
279.15 	0.0065037 	2163.9 
279.65 	0.0066103 	2163.9 
280.15 	0.0065037 	2163.9 
280.65 	0.0065037 	2163.9 
281.15 	0.0065037 	2163.9 
281.65 	0.0066103 	1997.5 
282.15 	0.0066103 	2163.9 
282.65 	0.0065037 	2163.9 
283.15 	0.0065037 	2163.9 
283.65 	0.0065037 	2163.9 
284.15 	0.0066103 	2163.9 
284.65 	0.0066103 	2163.9 
285.15 	0.0066103 	2163.9 
285.65 	0.0066103 	2163.9 
286.15 	0.0065037 	2163.9 
286.65 	0.0065037 	2163.9 
287.15 	0.0065037 	2163.9 
287.65 	0.0066103 	2163.9 
288.15 	0.0066103 	2163.9 
288.65 	0.0065037 	2163.9 
289.15 	0.0065037 	2163.9 
289.65 	0.0065037 	2163.9 
290.15 	0.0065037 	2163.9 
290.65 	0.0065037 	2163.9 
291.15 	0.0066103 	2163.9 
291.65 	0.0065037 	2163.9 
292.15 	0.0065037 	2163.9 
292.65 	0.0065037 	2163.9 
293.15 	0.0065037 	2330.4 
293.65 	0.0065037 	2163.9 
294.15 	0.0065037 	2163.9 
294.65 	0.0065037 	2163.9 
295.15 	0.0063971 	2163.9 
295.65 	0.0063971 	2163.9 
296.15 	0.0065037 	2163.9 
296.65 	0.0065037 	2163.9 
297.15 	0.0065037 	2163.9 
297.65 	0.0065037 	2163.9 
298.15 	0.0063971 	2163.9 
298.65 	0.0063971 	2163.9 
299.15 	0.0063971 	2163.9 
299.65 	0.0063971 	2163.9 
300.15 	0.0063971 	2163.9 
300.65 	0.0065037 	2330.4 
301.15 	0.0065037 	2163.9 
301.65 	0.0063971 	2163.9 
302.15 	0.0063971 	2163.9 
302.65 	0.0063971 	2163.9 
303.15 	0.0063971 	2163.9 
303.65 	0.0063971 	2163.9 
304.15 	0.0063971 	2163.9 
304.65 	0.0063971 	2163.9 
305.15 	0.0063971 	2163.9 
305.65 	0.0063971 	2163.9 
306.15 	0.0063971 	2163.9 
306.65 	0.0063971 	2163.9 
307.15 	0.0063971 	2163.9 
307.65 	0.0063971 	2163.9 
308.15 	0.0063971 	2163.9 
308.65 	0.0063971 	2163.9 
309.15 	0.0063971 	2163.9 
309.65 	0.0065037 	2330.4 
310.15 	0.0068236 	2496.9 
310.63 	0.0073566 	2996.2 
310.98 	0.0078897 	3162.7 
311.30 	0.0084228 	3662.0 
311.62 	0.0089559 	3828.5 
311.92 	0.0094890 	4161.4 
312.13 	0.010022 	4494.3 
312.32 	0.010555 	4827.2 
312.47 	0.011088 	4827.2 
312.62 	0.011621 	5326.6 
312.75 	0.012154 	5659.5 
312.88 	0.012688 	5826.0 
313.02 	0.013221 	5992.4 
313.13 	0.013754 	6158.9 
313.25 	0.014287 	6491.8 
313.37 	0.014820 	6824.7 
313.47 	0.015353 	7157.6 
313.57 	0.015886 	7324.1 
313.67 	0.016419 	7657.0 
313.77 	0.016952 	7657.0 
313.87 	0.017485 	8156.4 
313.95 	0.018018 	8322.8 
314.05 	0.018552 	8655.8 
314.17 	0.019085 	8489.3 
314.27 	0.019724 	8988.7 
314.37 	0.020257 	9155.1 
314.47 	0.020791 	9321.6 
314.57 	0.021324 	9488.0 
314.67 	0.021857 	9987.4 
314.77 	0.022390 	10154 
314.83 	0.022923 	10320 
314.93 	0.023456 	10487 
315.00 	0.023989 	10653 
315.08 	0.024522 	10820 
315.17 	0.025162 	10986 
315.25 	0.025695 	11153 
315.33 	0.026228 	11486 
315.40 	0.026761 	11486 
315.48 	0.027294 	11985 
315.55 	0.027827 	11985 
315.65 	0.028360 	12151 
315.75 	0.028894 	12318 
315.83 	0.029427 	12651 
315.95 	0.029960 	12651 
316.08 	0.030493 	13150 
316.20 	0.031026 	13317 
316.35 	0.031559 	13483 
316.48 	0.032092 	13816 
316.63 	0.032625 	13982 
316.77 	0.033158 	14315 
316.90 	0.033691 	14482 
317.02 	0.034224 	14648 
317.15 	0.034758 	14482 
317.32 	0.035291 	14815 
317.42 	0.035824 	15314 
317.50 	0.036357 	15647 
317.57 	0.036890 	15647 
317.65 	0.037423 	15813 
317.73 	0.037956 	16146 
317.82 	0.038489 	16313 
317.90 	0.039022 	16479 
318.00 	0.039662 	16812 
318.08 	0.040195 	16979 
318.18 	0.040728 	17145 
318.27 	0.041261 	17312 
318.37 	0.041794 	17644 
318.47 	0.042327 	17811 
318.58 	0.042860 	18144 
318.70 	0.043394 	18477 
318.87 	0.043927 	18810 
319.00 	0.044460 	19143 
319.15 	0.044993 	19475 
319.35 	0.045526 	19808 
319.52 	0.046059 	20141 
319.65 	0.046592 	20474 
319.80 	0.047125 	20807 
319.95 	0.047658 	20974 
320.12 	0.048191 	21306 
320.28 	0.048724 	21639 
320.48 	0.049258 	21806 
320.65 	0.049791 	22139 
320.77 	0.050324 	22472 
320.90 	0.050857 	22805 
321.03 	0.051390 	23137 
321.18 	0.051923 	23470 
321.32 	0.052456 	23637 
321.47 	0.052989 	23970 
321.62 	0.053522 	24303 
321.75 	0.054055 	24469 
321.88 	0.054588 	24802 
322.05 	0.055122 	25135 
322.18 	0.055655 	25468 
322.33 	0.056188 	25634 
322.50 	0.056721 	25967 
322.65 	0.057254 	26300 
322.83 	0.057787 	26633 
322.98 	0.058320 	26966 
323.15 	0.058853 	27132 
323.30 	0.059386 	27465 
323.43 	0.059919 	27798 
323.58 	0.060452 	28131 
323.73 	0.060986 	28298 
323.90 	0.061519 	28631 
324.05 	0.062052 	28963 
324.22 	0.062585 	29130 
324.37 	0.063118 	29463 
324.57 	0.063651 	29796 
324.75 	0.064184 	30129 
324.92 	0.064717 	30295 
325.12 	0.065250 	30628 
325.33 	0.065783 	30961 
325.62 	0.066316 	31127 
325.92 	0.066850 	31460 
326.27 	0.067383 	31793 
326.77 	0.067916 	32126 
327.27 	0.068342 	32293 
327.77 	0.068555 	32293 
328.27 	0.068769 	32459 
328.77 	0.068875 	32459 
329.27 	0.068982 	32626 
329.77 	0.068875 	32626 
330.27 	0.068769 	32626 
330.77 	0.068769 	32459 
331.27 	0.068769 	32626 
331.77 	0.068875 	32626 
332.27 	0.068875 	32626 
332.77 	0.068875 	32459 
333.27 	0.068982 	32626 
333.77 	0.069089 	32626 
334.27 	0.069089 	32626 
334.77 	0.069302 	32626 
335.27 	0.069302 	32626 
335.77 	0.069515 	32626 
336.27 	0.069622 	32626 
336.77 	0.069835 	32626 
337.27 	0.069835 	32626 
337.77 	0.069941 	32459 
338.27 	0.070048 	32626 
338.77 	0.070155 	32459 
339.27 	0.070155 	32626 
339.77 	0.070368 	32626 
340.27 	0.070475 	32626 
340.77 	0.070475 	32459 
341.27 	0.070475 	32626 
341.77 	0.070475 	32626 
342.27 	0.070475 	32626 
342.77 	0.070475 	32626 
343.27 	0.070581 	32626 
343.77 	0.070688 	32626 
344.27 	0.070688 	32459 
344.77 	0.070688 	32626 
345.27 	0.070794 	32626 
345.77 	0.070794 	32626 
346.27 	0.070794 	32459 
346.77 	0.071221 	32626 
347.27 	0.071434 	32626 
347.77 	0.071434 	32626 
348.27 	0.071434 	32626 
348.77 	0.071328 	32626 
349.27 	0.071221 	32792 
349.77 	0.071221 	32626 
350.27 	0.071221 	32626 
350.77 	0.071114 	32626 
351.27 	0.071221 	32626 
351.77 	0.071221 	32626 
352.27 	0.071221 	32626 
352.77 	0.071114 	32626 
353.27 	0.071114 	32626 
353.77 	0.071114 	32626 
354.27 	0.071221 	32626 
354.77 	0.071221 	32626 
355.27 	0.071221 	32792 
355.77 	0.071221 	32626 
356.27 	0.071221 	32626 
356.77 	0.071221 	32626 
357.27 	0.071221 	32626 
357.77 	0.071221 	32626 
358.27 	0.071221 	32626 
358.77 	0.071114 	32626 
359.27 	0.071114 	32626 
359.77 	0.071221 	32626 
360.27 	0.071221 	32459 
360.77 	0.071221 	32626 
361.27 	0.071221 	32626 
361.77 	0.071221 	32626 
362.27 	0.071221 	32626 
362.77 	0.071221 	32459 
363.27 	0.071221 	32626 
363.77 	0.071114 	32626 
364.27 	0.071221 	32626 
364.77 	0.071221 	32626 
365.27 	0.071114 	32626 
365.77 	0.071221 	32626 
366.27 	0.071221 	32626 
366.77 	0.071114 	32626 
367.27 	0.071114 	32626 
367.77 	0.071114 	32626 
368.27 	0.071114 	32626 
368.77 	0.071114 	32626 
369.27 	0.071008 	32459 
369.77 	0.071114 	32792 
370.27 	0.071114 	32626 
370.77 	0.071114 	32626 
371.27 	0.071008 	32626 
371.77 	0.071114 	32626 
372.27 	0.071008 	32626 
372.77 	0.071114 	32626 
373.27 	0.071008 	32626 
373.77 	0.071008 	32792 
374.27 	0.070901 	32626 
374.77 	0.070901 	32626 
375.27 	0.070901 	32626 
375.77 	0.070901 	32459 
376.27 	0.070794 	32626 
376.77 	0.070794 	32626 
377.27 	0.070794 	32459 
377.77 	0.070794 	32626 
378.27 	0.070794 	32626 
378.77 	0.070794 	32626 
379.27 	0.070688 	32626 
379.77 	0.070688 	32626 
380.27 	0.070688 	32626 
380.77 	0.070688 	32626 
381.27 	0.070688 	32459 
381.77 	0.070581 	32626 
382.27 	0.070581 	32626 
382.77 	0.070581 	32459 
383.27 	0.070581 	32626 
383.77 	0.070581 	32626 
384.27 	0.070475 	32626 
384.77 	0.070475 	32626 
385.27 	0.070475 	32626 
385.77 	0.070368 	32126 
386.15 	0.070048 	31460 
386.60 	0.069515 	31127 
386.93 	0.068982 	30628 
387.25 	0.068449 	30295 
387.52 	0.067916 	29796 
387.78 	0.067383 	29463 
388.02 	0.066850 	28963 
388.20 	0.066316 	28464 
388.38 	0.065783 	28131 
388.57 	0.065250 	27798 
388.75 	0.064717 	27465 
388.93 	0.064184 	26966 
389.12 	0.063651 	26633 
389.28 	0.063118 	26300 
389.47 	0.062585 	25801 
389.65 	0.062052 	25468 
389.83 	0.061519 	25135 
390.00 	0.060986 	24802 
390.18 	0.060452 	24469 
390.43 	0.059919 	24303 
390.65 	0.059386 	23803 
390.87 	0.058747 	23470 
391.03 	0.058213 	22971 
391.18 	0.057680 	22805 
391.32 	0.057147 	22472 
391.47 	0.056614 	21972 
391.63 	0.056081 	21806 
391.78 	0.055548 	21473 
391.95 	0.055015 	21140 
392.10 	0.054482 	20974 
392.25 	0.053949 	20641 
392.42 	0.053416 	20308 
392.58 	0.052883 	19975 
392.73 	0.052349 	19808 
392.88 	0.051816 	19475 
393.03 	0.051283 	19309 
393.20 	0.050750 	18810 
393.33 	0.050217 	18643 
393.50 	0.049684 	18310 
393.65 	0.049151 	17977 
393.82 	0.048618 	17811 
393.98 	0.048085 	17478 
394.17 	0.047552 	17312 
394.37 	0.047019 	17145 
394.60 	0.046485 	16812 
394.80 	0.045952 	16479 
394.92 	0.045419 	15980 
395.02 	0.044886 	15813 
395.13 	0.044353 	15480 
395.23 	0.043820 	15314 
395.35 	0.043287 	14981 
395.45 	0.042754 	14648 
395.55 	0.042221 	14482 
395.67 	0.041688 	14149 
395.78 	0.041155 	13982 
395.90 	0.040622 	13816 
396.02 	0.040088 	13483 
396.15 	0.039555 	13150 
396.27 	0.039022 	12817 
396.38 	0.038489 	12651 
396.50 	0.037956 	12318 
396.63 	0.037423 	12151 
396.75 	0.036890 	11985 
396.88 	0.036357 	11818 
397.02 	0.035824 	11486 
397.13 	0.035291 	11319 
397.27 	0.034758 	10986 
397.38 	0.034224 	10653 
397.50 	0.033691 	10653 
397.65 	0.033052 	10320 
397.78 	0.032519 	10154 
397.92 	0.031985 	9820.9 
398.03 	0.031452 	9321.6 
398.15 	0.030919 	9155.1 
398.27 	0.030386 	8988.7 
398.38 	0.029853 	8988.7 
398.50 	0.029320 	8655.8 
398.63 	0.028787 	8489.3 
398.75 	0.028254 	8322.8 
398.85 	0.027721 	8156.4 
398.98 	0.027188 	7823.5 
399.08 	0.026655 	7823.5 
399.20 	0.026121 	7157.6 
399.33 	0.025588 	7157.6 
399.43 	0.025055 	6991.2 
399.55 	0.024522 	6824.7 
399.68 	0.023882 	6658.3 
399.80 	0.023349 	6325.4 
399.92 	0.022816 	6158.9 
400.03 	0.022283 	5992.4 
400.15 	0.021750 	5659.5 
400.27 	0.021110 	5659.5 
400.38 	0.020577 	5659.5 
400.50 	0.020044 	5326.6 
400.60 	0.019511 	5160.2 
400.73 	0.018978 	4827.2 
400.83 	0.018445 	4660.8 
400.95 	0.017912 	4494.3 
401.08 	0.017379 	4494.3 
401.23 	0.016846 	4327.9 
401.40 	0.016313 	4161.4 
401.57 	0.015779 	3995.0 
401.75 	0.015246 	3995.0 
401.93 	0.014713 	3828.5 
402.15 	0.014180 	3662.0 
402.63 	0.013647 	3662.0 
402.97 	0.013114 	3495.6 
403.30 	0.012581 	3329.1 
403.75 	0.012048 	3162.7 
404.23 	0.011515 	2996.2 
404.73 	0.011195 	2996.2 
405.23 	0.010768 	2829.8 
405.73 	0.010449 	2663.3 
406.23 	0.010129 	2663.3 
406.73 	0.0099155 	2663.3 
407.23 	0.0098089 	2663.3 
407.73 	0.0095956 	2496.9 
408.23 	0.0094890 	2496.9 
408.73 	0.0092758 	2496.9 
409.23 	0.0091692 	2496.9 
409.73 	0.0090625 	2496.9 
410.23 	0.0089559 	2330.4 
410.73 	0.0089559 	2496.9 
411.23 	0.0088493 	2330.4 
411.73 	0.0087427 	2496.9 
412.23 	0.0086361 	2330.4 
412.73 	0.0086361 	2330.4 
413.23 	0.0085294 	2330.4 
413.73 	0.0084228 	2330.4 
414.23 	0.0084228 	2330.4 
414.73 	0.0084228 	2330.4 
415.23 	0.0083162 	2330.4 
415.73 	0.0083162 	2330.4 
416.23 	0.0082096 	2330.4 
416.73 	0.0081030 	2330.4 
417.23 	0.0081030 	2330.4 
417.73 	0.0081030 	2163.9 
418.23 	0.0079964 	2330.4 
418.73 	0.0079964 	2163.9 
419.23 	0.0078897 	2163.9 
419.73 	0.0078897 	2330.4 
420.23 	0.0077831 	2330.4 
420.73 	0.0077831 	2163.9 
421.23 	0.0076765 	2163.9 
421.73 	0.0077831 	2163.9 
422.23 	0.0076765 	2163.9 
422.73 	0.0076765 	2163.9 
423.23 	0.0076765 	2163.9 
423.73 	0.0076765 	2163.9 
424.23 	0.0076765 	2163.9 
424.73 	0.0075699 	2163.9 
425.23 	0.0075699 	1997.5 
425.73 	0.0075699 	2163.9 
426.23 	0.0075699 	2163.9 
426.73 	0.0075699 	2163.9 
427.23 	0.0075699 	2163.9 
427.73 	0.0075699 	2163.9 
428.23 	0.0074633 	2163.9 
428.73 	0.0075699 	2163.9 
429.23 	0.0075699 	2163.9 
429.73 	0.0075699 	2163.9 
430.23 	0.0075699 	2163.9 
430.73 	0.0074633 	2163.9 
431.23 	0.0075699 	2163.9 
431.73 	0.0075699 	2163.9 
432.23 	0.0075699 	2163.9 
432.73 	0.0075699 	2163.9 
433.23 	0.0075699 	2163.9 
433.73 	0.0075699 	2163.9 
434.23 	0.0075699 	2163.9 
434.73 	0.0074633 	2163.9 
435.23 	0.0074633 	2163.9 
435.73 	0.0074633 	2163.9 
436.23 	0.0074633 	2163.9 
436.73 	0.0074633 	2163.9 
437.23 	0.0074633 	2163.9 
437.73 	0.0074633 	2163.9 
438.23 	0.0074633 	2163.9 
438.73 	0.0074633 	2330.4 
439.23 	0.0074633 	1997.5 
439.73 	0.0074633 	2163.9 
440.23 	0.0074633 	2163.9 
440.73 	0.0074633 	2163.9 
441.23 	0.0074633 	2163.9 
441.73 	0.0074633 	2163.9 
442.23 	0.0074633 	2163.9 
442.73 	0.0074633 	2163.9 
443.23 	0.0073566 	2163.9 
443.73 	0.0073566 	2163.9 
444.23 	0.0074633 	2163.9 
444.73 	0.0074633 	2163.9 
445.23 	0.0074633 	2330.4 
445.73 	0.0073566 	2163.9 
446.23 	0.0073566 	2163.9 
446.73 	0.0073566 	2330.4 
447.23 	0.0073566 	2163.9 
447.73 	0.0073566 	2163.9 
448.23 	0.0073566 	2163.9 
448.73 	0.0073566 	2163.9 
449.23 	0.0073566 	2163.9 
449.73 	0.0073566 	2163.9 
450.23 	0.0073566 	2163.9 
450.73 	0.0073566 	2163.9 
451.23 	0.0073566 	2163.9 
451.73 	0.0073566 	2163.9 
452.23 	0.0072500 	1997.5 
452.73 	0.0072500 	2163.9 
453.23 	0.0073566 	2163.9 
453.73 	0.0073566 	2163.9 
454.23 	0.0073566 	2330.4 
454.73 	0.0073566 	2163.9 
455.23 	0.0072500 	2163.9 
455.73 	0.0072500 	2163.9 
456.23 	0.0072500 	2163.9 
456.73 	0.0072500 	2163.9 
457.23 	0.0072500 	2163.9 
457.73 	0.0072500 	2163.9 
458.23 	0.0072500 	2163.9 
458.73 	0.0071434 	2163.9 
459.23 	0.0072500 	2163.9 
459.73 	0.0072500 	2163.9 
460.23 	0.0072500 	2163.9 
460.73 	0.0072500 	2163.9 
461.23 	0.0071434 	2163.9 
461.73 	0.0072500 	2163.9 
462.23 	0.0072500 	2163.9 
462.73 	0.0073566 	2330.4 
463.23 	0.0072500 	2163.9 
463.73 	0.0072500 	2163.9 
464.23 	0.0072500 	2163.9 
464.73 	0.0072500 	2163.9 
465.23 	0.0071434 	2163.9 
465.73 	0.0072500 	2163.9 
466.23 	0.0072500 	2163.9 
466.73 	0.0072500 	2163.9 
467.23 	0.0072500 	2163.9 
467.73 	0.0072500 	2163.9 
468.23 	0.0072500 	2163.9 
468.73 	0.0072500 	2163.9 
469.23 	0.0072500 	2163.9 
469.73 	0.0071434 	2163.9 
470.23 	0.0071434 	2163.9 
470.73 	0.0071434 	2163.9 
471.23 	0.0072500 	2163.9 
471.73 	0.0071434 	2163.9 
472.23 	0.0071434 	2163.9 
472.73 	0.0071434 	2163.9 
473.23 	0.0071434 	2163.9 
473.73 	0.0071434 	2163.9 
474.23 	0.0071434 	2163.9 
474.73 	0.0071434 	2163.9 
475.23 	0.0071434 	2163.9 
475.73 	0.0071434 	2163.9 
476.23 	0.0071434 	2163.9 
476.73 	0.0071434 	2163.9 
477.23 	0.0070368 	2163.9 
477.73 	0.0071434 	2163.9 
478.23 	0.0071434 	2163.9 
478.73 	0.0071434 	2163.9 
479.23 	0.0071434 	2163.9 
479.73 	0.0071434 	2163.9 
480.23 	0.0071434 	2163.9 
480.73 	0.0071434 	2163.9 
481.23 	0.0071434 	2163.9 
481.73 	0.0071434 	2163.9 
482.23 	0.0071434 	2163.9 
482.73 	0.0071434 	2163.9 
483.23 	0.0070368 	2163.9 
483.73 	0.0071434 	2163.9 
484.23 	0.0071434 	2163.9 
484.73 	0.0071434 	2163.9 
485.23 	0.0071434 	2163.9 
485.73 	0.0070368 	2163.9 
486.23 	0.0071434 	2163.9 
486.73 	0.0071434 	2163.9 
487.23 	0.0070368 	2163.9 
487.73 	0.0070368 	2163.9 
488.23 	0.0070368 	2163.9 
488.73 	0.0071434 	2163.9 
489.23 	0.0071434 	2163.9 
489.73 	0.0071434 	2163.9 
490.23 	0.0070368 	2163.9 
490.73 	0.0070368 	2163.9 
491.23 	0.0070368 	2163.9 
491.73 	0.0070368 	2330.4 
492.23 	0.0070368 	2163.9 
492.73 	0.0070368 	2163.9 
493.22 	0.0070368 	2163.9 
493.72 	0.0070368 	2163.9 
494.22 	0.0070368 	2163.9 
494.72 	0.0071434 	2330.4 
495.22 	0.0075699 	2663.3 
495.65 	0.0081030 	2996.2 
495.98 	0.0086361 	3329.1 
496.32 	0.0091692 	3495.6 
496.65 	0.0097022 	3828.5 
496.93 	0.010235 	4161.4 
497.18 	0.010768 	4327.9 
497.35 	0.011302 	4827.2 
497.50 	0.011835 	4993.7 
497.62 	0.012368 	5326.6 
497.78 	0.012901 	5493.1 
497.90 	0.013434 	5992.4 
498.05 	0.013967 	6158.9 
498.17 	0.014500 	6325.4 
498.28 	0.015033 	6658.3 
498.40 	0.015566 	6658.3 
498.50 	0.016099 	6991.2 
498.60 	0.016632 	7157.6 
498.68 	0.017166 	7324.1 
498.78 	0.017699 	7823.5 
498.88 	0.018232 	7823.5 
498.97 	0.018765 	8156.4 
499.07 	0.019298 	8322.8 
499.15 	0.019831 	8489.3 
499.25 	0.020364 	8988.7 
499.35 	0.020897 	8988.7 
499.43 	0.021430 	9321.6 
499.53 	0.021963 	9654.5 
499.63 	0.022496 	9820.9 
499.73 	0.023030 	10154 
499.83 	0.023563 	10154 
499.93 	0.024096 	10487 
500.03 	0.024629 	10653 
500.12 	0.025162 	10986 
500.23 	0.025695 	11319 
500.33 	0.026228 	11486 
500.43 	0.026761 	11652 
500.53 	0.027294 	11985 
500.65 	0.027827 	11985 
500.75 	0.028467 	12318 
500.87 	0.029000 	12651 
500.97 	0.029533 	12984 
501.08 	0.030066 	13150 
501.18 	0.030599 	13317 
501.32 	0.031132 	13483 
501.42 	0.031666 	13649 
501.55 	0.032199 	13816 
501.67 	0.032732 	14149 
501.80 	0.033265 	14315 
501.95 	0.033798 	14648 
502.23 	0.034331 	14815 
502.37 	0.034864 	15148 
502.47 	0.035397 	15480 
502.58 	0.035930 	15813 
502.68 	0.036463 	15980 
502.78 	0.036996 	16313 
502.88 	0.037530 	16646 
502.98 	0.038063 	16812 
503.10 	0.038596 	16979 
503.22 	0.039129 	17478 
503.33 	0.039662 	17644 
503.45 	0.040195 	17811 
503.57 	0.040728 	18144 
503.68 	0.041261 	18477 
503.80 	0.041794 	18643 
503.93 	0.042327 	18976 
504.05 	0.042860 	19143 
504.17 	0.043394 	19475 
504.30 	0.043927 	19808 
504.43 	0.044460 	19975 
504.55 	0.044993 	20308 
504.70 	0.045526 	20474 
504.83 	0.046059 	20807 
504.98 	0.046592 	21140 
505.12 	0.047125 	21306 
505.28 	0.047658 	21639 
505.45 	0.048191 	21972 
505.60 	0.048724 	22139 
505.75 	0.049258 	22472 
505.88 	0.049791 	22805 
506.02 	0.050324 	22971 
506.13 	0.050857 	23304 
506.27 	0.051390 	23637 
506.40 	0.051923 	23970 
506.55 	0.052456 	24136 
506.67 	0.052989 	24469 
506.83 	0.053522 	24802 
506.97 	0.054055 	24969 
507.13 	0.054588 	25301 
507.28 	0.055122 	25634 
507.43 	0.055655 	25967 
507.60 	0.056188 	26300 
507.73 	0.056721 	26467 
507.90 	0.057254 	26800 
508.05 	0.057787 	27132 
508.18 	0.058320 	27299 
508.32 	0.058853 	27465 
508.48 	0.059386 	27965 
508.62 	0.059919 	28131 
508.78 	0.060452 	28464 
508.93 	0.060986 	28631 
509.10 	0.061519 	28963 
509.30 	0.062052 	29296 
509.47 	0.062585 	29629 
509.65 	0.063118 	29962 
509.83 	0.063651 	30295 
510.00 	0.064184 	30628 
510.20 	0.064717 	30795 
510.45 	0.065250 	31127 
510.75 	0.065783 	31294 
511.07 	0.066316 	31627 
511.50 	0.066850 	31960 
512.00 	0.067383 	32126 
512.50 	0.067702 	32293 
513.00 	0.068022 	32459 
513.50 	0.068236 	32459 
514.00 	0.068236 	32626 
514.50 	0.068449 	32626 
515.00 	0.068449 	32626 
515.50 	0.068555 	32626 
516.00 	0.068662 	32626 
516.50 	0.068662 	32626 
517.00 	0.068662 	32626 
517.50 	0.068769 	32626 
518.00 	0.068769 	32626 
518.50 	0.068769 	32626 
519.00 	0.068875 	32626 
519.50 	0.068769 	32459 
520.00 	0.068769 	32626 
520.50 	0.068769 	32459 
521.00 	0.068875 	32626 
521.50 	0.068875 	32626 
522.00 	0.068875 	32626 
522.50 	0.068982 	32626 
523.00 	0.068875 	32626 
523.50 	0.068875 	32626 
524.00 	0.068875 	32626 
524.50 	0.068982 	32626 
525.00 	0.068875 	32626 
525.50 	0.068982 	32626 
526.00 	0.068982 	32459 
526.50 	0.068875 	32626 
527.00 	0.068982 	32626 
527.50 	0.068982 	32459 
528.00 	0.068982 	32626 
528.50 	0.068982 	32626 
529.00 	0.068982 	32792 
529.50 	0.068982 	32626 
530.00 	0.068982 	32626 
530.50 	0.068982 	32792 
531.00 	0.068982 	32626 
531.50 	0.068982 	32626 
532.00 	0.069089 	32792 
532.50 	0.068982 	32626 
533.00 	0.068982 	32626 
533.50 	0.068982 	32626 
534.00 	0.069089 	32626 
534.50 	0.069089 	32459 
535.00 	0.068982 	32626 
535.50 	0.069089 	32626 
536.00 	0.069089 	32626 
536.50 	0.069089 	32626 
537.00 	0.069089 	32792 
537.50 	0.069089 	32792 
538.00 	0.069089 	32626 
538.50 	0.069089 	32626 
539.00 	0.069089 	32626 
539.50 	0.069089 	32626 
540.00 	0.068982 	32626 
540.50 	0.069089 	32626 
541.00 	0.069195 	32459 
541.50 	0.069089 	32459 
542.00 	0.069195 	32792 
542.50 	0.069195 	32626 
543.00 	0.069195 	32626 
543.50 	0.069089 	32626 
544.00 	0.069195 	32626 
544.50 	0.069195 	32626 
545.00 	0.069195 	32626 
545.50 	0.069195 	32626 
546.00 	0.069195 	32792 
546.50 	0.069195 	32626 
547.00 	0.069195 	32459 
547.50 	0.069195 	32626 
548.00 	0.069195 	32792 
548.50 	0.069195 	32626 
549.00 	0.069195 	32626 
549.50 	0.069302 	32792 
550.00 	0.069302 	32626 
550.50 	0.069302 	32626 
551.00 	0.069195 	32626 
551.50 	0.069302 	32626 
552.00 	0.069195 	32459 
552.50 	0.069302 	32626 
553.00 	0.069195 	32626 
553.50 	0.069195 	32626 
554.00 	0.069195 	32792 
554.50 	0.069195 	32626 
555.00 	0.069195 	32626 
555.50 	0.069195 	32626 
556.00 	0.069195 	32626 
556.50 	0.069195 	32626 
557.00 	0.069302 	32626 
557.50 	0.069302 	32792 
558.00 	0.069195 	32626 
558.50 	0.069195 	32626 
559.00 	0.069302 	32626 
559.50 	0.069302 	32626 
560.00 	0.069302 	32626 
560.50 	0.069302 	32626 
561.00 	0.069302 	32792 
561.50 	0.069302 	32626 
562.00 	0.069302 	32626 
562.50 	0.069302 	32626 
563.00 	0.069302 	32626 
563.50 	0.069302 	32626 
564.00 	0.069302 	32459 
564.50 	0.069302 	32626 
565.00 	0.069302 	32626 
565.50 	0.069195 	32626 
566.00 	0.069195 	32626 
566.50 	0.069302 	32626 
567.00 	0.069302 	32626 
567.50 	0.069302 	32626 
568.00 	0.069195 	32626 
568.50 	0.069302 	32792 
569.00 	0.069195 	32626 
569.50 	0.069195 	32626 
570.00 	0.069302 	32626 
570.18 	0.069195 	32626 
570.68 	0.069195 	32626 
571.18 	0.069195 	32626 
571.68 	0.069302 	32792 
572.18 	0.069195 	32626 
572.68 	0.069302 	32626 
573.18 	0.069302 	32626 
573.68 	0.069302 	32626 
574.18 	0.069302 	32459 
574.68 	0.069302 	32626 
575.18 	0.069302 	32626 
575.68 	0.069302 	32459 
576.18 	0.069302 	32626 
576.68 	0.069302 	32626 
577.18 	0.069302 	32626 
577.68 	0.069302 	32792 
578.18 	0.069302 	32626 
578.68 	0.069302 	32626 
579.18 	0.069302 	32792 
579.68 	0.069302 	32626 
580.18 	0.069302 	32626 
580.68 	0.069302 	32626 
581.18 	0.069302 	32626 
581.68 	0.069302 	32626 
582.18 	0.069302 	32626 
582.68 	0.069302 	32626 
583.18 	0.069302 	32626 
583.68 	0.069302 	32626 
584.18 	0.069302 	32792 
584.68 	0.069302 	32459 
585.18 	0.069302 	32626 
585.68 	0.069302 	32626 
586.18 	0.069302 	32626 
586.68 	0.069302 	32459 
587.18 	0.069302 	32626 
587.68 	0.069302 	32626 
588.18 	0.069302 	32626 
588.68 	0.069302 	32626 
589.18 	0.069302 	32626 
589.68 	0.069302 	32626 
590.18 	0.069302 	32626 
590.68 	0.069302 	32626 
591.18 	0.069302 	32626 
591.68 	0.069302 	32626 
592.18 	0.069302 	32626 
592.68 	0.069302 	32626 
593.18 	0.069408 	32626 
593.68 	0.069302 	32626 
594.18 	0.069408 	32626 
594.68 	0.069302 	32626 
595.18 	0.069302 	32626 
595.68 	0.069302 	32626 
596.18 	0.069408 	32626 
596.68 	0.069302 	32626 
597.18 	0.069408 	32626 
597.68 	0.069302 	32626 
598.18 	0.069302 	32626 
598.68 	0.069302 	32792 
599.18 	0.069302 	32626 
599.68 	0.069302 	32626 
600.17 	0.069302 	32626 
600.67 	0.069302 	32792 
601.17 	0.069408 	32626 
601.67 	0.069408 	32626 
602.17 	0.069408 	32626 
602.67 	0.069408 	32792 
603.17 	0.069408 	32626 
603.67 	0.069408 	32626 
604.17 	0.069408 	32626 
604.67 	0.069408 	32626 
605.17 	0.069408 	32626 
605.67 	0.069408 	32626 
606.17 	0.069408 	32626 
606.67 	0.069408 	32626 
607.17 	0.069408 	32626 
607.67 	0.069408 	32626 
608.17 	0.069408 	32626 
608.67 	0.069408 	32792 
609.17 	0.069408 	32626 
609.67 	0.069408 	32459 
610.17 	0.069408 	32626 
610.67 	0.069408 	32626 
611.17 	0.069408 	32626 
611.67 	0.069408 	32459 
612.17 	0.069408 	32459 
612.67 	0.069408 	32626 
613.17 	0.069408 	32626 
613.67 	0.069408 	32626 
614.17 	0.069408 	32459 
614.67 	0.069408 	32626 
615.17 	0.069408 	32792 
615.67 	0.069408 	32626 
616.17 	0.069408 	32459 
616.67 	0.069408 	32626 
617.17 	0.069408 	32626 
617.67 	0.069408 	32626 
618.17 	0.069408 	32626 
618.67 	0.069408 	32459 
619.17 	0.069408 	32626 
619.67 	0.069408 	32626 
620.17 	0.069408 	32792 
620.67 	0.069408 	32626 
621.17 	0.069408 	32626 
621.67 	0.069408 	32792 
622.17 	0.069408 	32626 
622.67 	0.069408 	32626 
623.17 	0.069408 	32626 
623.67 	0.069408 	32626 
624.17 	0.069408 	32626 
624.67 	0.069408 	32626 
625.17 	0.069408 	32626 
625.67 	0.069408 	32626 
626.17 	0.069408 	32459 
626.67 	0.069408 	32626 
627.17 	0.069408 	32792 
627.67 	0.069408 	32626 
628.17 	0.069408 	32626 
628.67 	0.069408 	32626 
629.17 	0.069408 	32626 
629.67 	0.069408 	32626 
630.17 	0.069408 	32626 
630.67 	0.069408 	32626 
631.17 	0.069408 	32626 
631.67 	0.069408 	32792 
632.17 	0.069408 	32626 
632.67 	0.069408 	32626 
633.17 	0.069408 	32626 
633.67 	0.069408 	32459 
634.17 	0.069408 	32792 
634.67 	0.069408 	32626 
635.17 	0.069408 	32459 
635.67 	0.069408 	32626 
636.17 	0.069408 	32626 
636.67 	0.069408 	32459 
637.17 	0.069408 	32626 
637.67 	0.069408 	32626 
638.17 	0.069408 	32626 
638.67 	0.069408 	32626 
639.17 	0.069408 	32626 
639.67 	0.069408 	32626 
640.17 	0.069408 	32626 
640.67 	0.069408 	32626 
641.17 	0.069408 	32626 
641.67 	0.069408 	32626 
642.17 	0.069408 	32626 
642.67 	0.069408 	32626 
643.17 	0.069408 	32626 
643.67 	0.069408 	32626 
644.17 	0.069408 	32626 
644.67 	0.069408 	32792 
645.17 	0.069408 	32626 
645.67 	0.069408 	32626 
646.17 	0.069408 	32626 
646.67 	0.069408 	32626 
647.17 	0.069408 	32626 
647.67 	0.069408 	32626 
648.17 	0.069408 	32626 
648.67 	0.069408 	32626 
649.17 	0.069408 	32626 
649.67 	0.069408 	32626 
650.17 	0.069408 	32626 
650.67 	0.069408 	32626 
651.17 	0.069408 	32626 
651.67 	0.069408 	32626 
652.17 	0.069408 	32626 
652.67 	0.069408 	32626 
653.17 	0.069408 	32626 
653.67 	0.069408 	32626 
654.17 	0.069408 	32459 
654.67 	0.069408 	32626 
655.17 	0.069408 	32626 
655.67 	0.069408 	32626 
656.17 	0.069408 	32626 
656.67 	0.069408 	32626 
657.17 	0.069408 	32626 
657.67 	0.069408 	32626 
658.17 	0.069408 	32626 
658.67 	0.069408 	32459 
659.17 	0.069408 	32626 
659.67 	0.069408 	32626 
660.17 	0.069408 	32626 
660.67 	0.069408 	32626 
661.17 	0.069408 	32626 
661.67 	0.069408 	32792 
662.17 	0.069408 	32626 
662.67 	0.069408 	32626 
663.17 	0.069408 	32626 
663.67 	0.069408 	32459 
664.17 	0.069408 	32626 
664.67 	0.069408 	32459 
665.17 	0.069408 	32626 
665.67 	0.069408 	32626 
666.17 	0.069408 	32626 
666.67 	0.069408 	32626 
667.17 	0.069408 	32626 
667.67 	0.069408 	32626 
668.17 	0.069408 	32626 
668.67 	0.069408 	32626 
669.17 	0.069408 	32792 
669.67 	0.069408 	32626 
670.17 	0.069408 	32626 
670.67 	0.069408 	33125 
671.17 	0.069408 	33791 
671.58 	0.069408 	34457 
671.92 	0.069408 	35122 
672.30 	0.069408 	35788 
672.68 	0.069408 	36454 
673.08 	0.069408 	37120 
673.43 	0.069408 	37786 
673.83 	0.069408 	38452 
674.18 	0.069408 	39117 
674.55 	0.069408 	39783 
674.92 	0.069408 	40449 
675.27 	0.069408 	41115 
675.60 	0.069408 	41781 
675.98 	0.069408 	42446 
676.28 	0.069408 	43112 
676.68 	0.069408 	43778 
677.05 	0.069408 	44444 
677.37 	0.069408 	45110 
677.77 	0.069408 	45776 
678.10 	0.069408 	46441 
678.45 	0.069408 	47107 
678.78 	0.069408 	47773 
679.10 	0.069408 	48439 
679.47 	0.069408 	49105 
679.80 	0.069408 	49771 
680.13 	0.069408 	50436 
680.48 	0.069408 	51102 
680.82 	0.069408 	51768 
681.17 	0.069408 	52434 
681.53 	0.069408 	53100 
681.87 	0.069408 	53766 
682.23 	0.069408 	54431 
682.55 	0.069408 	55097 
682.88 	0.069408 	55763 
683.22 	0.069408 	56429 
683.57 	0.069408 	57095 
683.93 	0.069408 	57761 
684.28 	0.069408 	58426 
684.65 	0.069408 	59092 
684.95 	0.069408 	59758 
685.33 	0.069408 	60424 
685.65 	0.069408 	61090 
686.00 	0.069408 	61755 
686.35 	0.069408 	62421 
686.75 	0.069408 	63087 
687.08 	0.069408 	63753 
687.48 	0.069408 	64419 
687.83 	0.069408 	65085 
688.13 	0.069408 	65750 
688.55 	0.069408 	66416 
688.93 	0.069408 	67082 
689.30 	0.069408 	67748 
689.65 	0.069408 	68414 
690.10 	0.069408 	69080 
690.58 	0.069408 	69745 
691.03 	0.069408 	70411 
691.53 	0.069408 	70911 
692.03 	0.069408 	71077 
692.50 	0.069408 	70411 
692.62 	0.069408 	69745 
692.70 	0.069408 	69080 
692.77 	0.069408 	68247 
692.83 	0.069408 	67581 
692.88 	0.069408 	66916 
692.92 	0.069408 	66250 
692.95 	0.069408 	65584 
692.97 	0.069408 	64752 
692.98 	0.069408 	63753 
693.00 	0.069408 	61922 
693.02 	0.069408 	58926 
693.03 	0.069408 	53932 
693.05 	0.069408 	43445 
