Tempo(s)	Deformação(mm)	Força(N)
0.016667 	-0.0001068 	-166.80 
0.51667 	0.00000 	0.00000 
1.0167 	0.00000 	332.91 
1.5167 	0.00000 	665.83 
2.0167 	0.00010662 	998.74 
2.5167 	0.00021324 	1331.7 
3.0167 	0.00031985 	1498.1 
3.5167 	0.00031985 	1664.6 
4.0167 	0.00031985 	1664.6 
4.5167 	0.00031985 	1831.0 
5.0167 	0.00042647 	2163.9 
5.5167 	0.00053309 	2330.4 
5.8500 	0.00074633 	2996.2 
6.2333 	0.00085294 	3662.0 
6.7000 	0.0012794 	3995.0 
7.1000 	0.0012794 	4660.8 
7.6000 	0.0013860 	5160.2 
7.9500 	0.0013860 	5826.0 
8.3833 	0.0018125 	6325.4 
8.8167 	0.0019191 	6991.2 
9.2333 	0.0021324 	7657.0 
9.7167 	0.0024522 	8322.8 
10.217 	0.0026655 	8655.8 
10.550 	0.0030919 	8988.7 
10.817 	0.0031985 	9654.5 
11.317 	0.0035184 	10154 
11.717 	0.0037316 	10820 
12.217 	0.0040515 	11153 
12.600 	0.0041581 	11818 
13.100 	0.0042647 	12318 
13.583 	0.0045846 	12984 
14.083 	0.0046912 	13483 
14.500 	0.0051177 	13982 
15.000 	0.0052243 	14315 
15.500 	0.0053309 	14815 
16.000 	0.0055441 	15148 
16.467 	0.0056508 	15813 
16.917 	0.0059706 	16479 
17.400 	0.0061839 	17145 
17.900 	0.0065037 	17644 
18.367 	0.0066103 	18310 
18.867 	0.0069302 	18976 
19.367 	0.0071434 	19309 
19.833 	0.0073566 	19975 
20.333 	0.0075699 	20474 
20.833 	0.0076765 	20807 
21.333 	0.0077831 	20807 
21.833 	0.0078897 	20974 
22.333 	0.0078897 	20974 
22.833 	0.0078897 	21140 
23.333 	0.0077831 	21140 
23.833 	0.0077831 	21140 
24.333 	0.0077831 	21140 
24.833 	0.0076765 	21140 
25.333 	0.0076765 	21140 
25.833 	0.0076765 	21140 
26.333 	0.0076765 	21140 
26.833 	0.0076765 	21140 
27.333 	0.0075699 	21140 
27.833 	0.0075699 	21140 
28.333 	0.0075699 	21140 
28.833 	0.0075699 	21140 
29.333 	0.0075699 	20974 
29.833 	0.0075699 	21140 
30.333 	0.0075699 	21140 
30.833 	0.0075699 	21140 
31.333 	0.0075699 	21140 
31.833 	0.0075699 	21140 
32.333 	0.0075699 	21140 
32.833 	0.0075699 	21140 
33.333 	0.0075699 	21140 
33.833 	0.0075699 	21140 
34.333 	0.0075699 	21140 
34.833 	0.0075699 	21140 
35.333 	0.0074633 	21140 
35.833 	0.0075699 	21140 
36.333 	0.0075699 	21140 
36.833 	0.0075699 	21306 
37.333 	0.0075699 	21140 
37.833 	0.0075699 	21140 
38.333 	0.0075699 	21140 
38.833 	0.0075699 	21140 
39.333 	0.0075699 	21140 
39.833 	0.0075699 	21140 
40.333 	0.0075699 	21140 
40.833 	0.0075699 	21140 
41.333 	0.0074633 	21140 
41.833 	0.0075699 	21140 
42.333 	0.0074633 	21140 
42.833 	0.0075699 	20974 
43.333 	0.0074633 	21140 
43.833 	0.0075699 	21140 
44.333 	0.0075699 	21140 
44.833 	0.0074633 	21140 
45.333 	0.0074633 	20974 
45.833 	0.0074633 	20974 
46.333 	0.0074633 	21140 
46.833 	0.0075699 	21140 
47.333 	0.0074633 	21140 
47.833 	0.0074633 	21140 
48.333 	0.0074633 	21140 
48.833 	0.0074633 	20974 
49.333 	0.0075699 	21140 
49.833 	0.0074633 	21306 
50.333 	0.0074633 	21140 
50.833 	0.0074633 	20974 
51.333 	0.0074633 	21140 
51.833 	0.0074633 	20974 
52.333 	0.0074633 	21140 
52.833 	0.0074633 	21140 
53.333 	0.0074633 	21140 
53.833 	0.0074633 	21140 
54.333 	0.0074633 	21140 
54.833 	0.0074633 	21140 
55.333 	0.0074633 	20974 
55.833 	0.0075699 	21140 
56.333 	0.0074633 	21306 
56.833 	0.0074633 	21140 
57.333 	0.0074633 	21140 
57.833 	0.0074633 	21140 
58.333 	0.0074633 	21140 
58.833 	0.0074633 	21306 
59.333 	0.0074633 	21140 
59.833 	0.0074633 	21140 
60.333 	0.0074633 	20974 
60.833 	0.0074633 	20974 
61.333 	0.0074633 	21140 
61.833 	0.0074633 	21140 
62.333 	0.0074633 	21140 
62.833 	0.0073566 	21140 
63.333 	0.0074633 	21140 
63.833 	0.0074633 	21140 
64.333 	0.0074633 	21140 
64.833 	0.0074633 	20974 
65.333 	0.0074633 	21140 
65.833 	0.0074633 	21140 
66.333 	0.0074633 	21306 
66.833 	0.0073566 	20974 
67.333 	0.0074633 	21140 
67.833 	0.0073566 	20974 
68.333 	0.0074633 	21140 
68.833 	0.0073566 	21140 
69.333 	0.0073566 	21140 
69.833 	0.0074633 	21140 
70.333 	0.0073566 	21140 
70.833 	0.0074633 	21140 
71.333 	0.0074633 	21140 
71.833 	0.0074633 	21140 
72.333 	0.0073566 	21140 
72.833 	0.0074633 	21140 
73.333 	0.0073566 	21140 
73.833 	0.0074633 	21140 
74.333 	0.0073566 	21140 
74.833 	0.0073566 	20974 
75.333 	0.0073566 	21140 
75.833 	0.0074633 	21306 
76.333 	0.0074633 	21306 
76.833 	0.0073566 	21140 
77.333 	0.0073566 	21140 
77.833 	0.0073566 	20974 
78.333 	0.0073566 	21140 
78.833 	0.0073566 	21140 
79.333 	0.0073566 	21140 
79.833 	0.0073566 	21140 
80.333 	0.0073566 	21140 
80.833 	0.0073566 	21140 
81.333 	0.0073566 	20974 
81.833 	0.0071434 	20474 
82.333 	0.0069302 	19808 
82.833 	0.0067169 	19309 
83.333 	0.0065037 	18810 
83.833 	0.0062905 	18310 
84.333 	0.0061839 	17811 
84.833 	0.0059706 	17312 
85.333 	0.0057574 	16979 
85.833 	0.0055441 	16479 
86.333 	0.0054375 	15980 
86.833 	0.0052243 	15647 
87.333 	0.0051177 	15314 
87.767 	0.0049044 	14648 
88.183 	0.0046912 	13982 
88.683 	0.0044780 	13317 
89.183 	0.0041581 	12817 
89.683 	0.0039449 	12318 
90.183 	0.0038383 	11818 
90.667 	0.0035184 	11153 
91.167 	0.0034118 	10653 
91.667 	0.0030919 	10154 
92.167 	0.0029853 	9654.5 
92.667 	0.0026655 	9321.6 
93.050 	0.0026655 	8655.8 
93.550 	0.0024522 	8156.4 
94.050 	0.0022390 	7657.0 
94.550 	0.0021324 	7157.6 
95.050 	0.0018125 	6824.7 
95.533 	0.0017059 	6158.9 
96.033 	0.0014927 	5826.0 
96.533 	0.0011728 	5326.6 
96.950 	0.0011728 	4660.8 
97.450 	0.00085294 	4327.9 
97.950 	0.00074633 	3995.0 
98.417 	0.00053309 	3329.1 
98.917 	0.00042647 	2996.2 
99.417 	0.00031985 	2663.3 
99.917 	0.00010662 	2330.4 
100.42 	0.00010662 	1997.5 
100.92 	0.00000 	1997.5 
101.42 	0.00000 	1997.5 
101.92 	0.00000 	1997.5 
102.42 	-0.0001068 	1831.0 
102.92 	-0.0002136 	1831.0 
103.42 	-0.0002136 	1831.0 
103.92 	-0.0003204 	1664.6 
104.42 	-0.0003204 	1664.6 
104.92 	-0.0003204 	1664.6 
105.42 	-0.0003204 	1498.1 
105.92 	-0.0004273 	1498.1 
106.42 	-0.0003204 	1498.1 
106.92 	-0.0004273 	1498.1 
107.42 	-0.0004273 	1331.7 
107.92 	-0.0004273 	1331.7 
108.42 	-0.0004273 	1331.7 
108.92 	-0.0004273 	1331.7 
109.42 	-0.0004273 	1331.7 
109.92 	-0.0004273 	1331.7 
110.42 	-0.0004273 	1331.7 
110.92 	-0.0003204 	1331.7 
111.42 	-0.0004273 	1331.7 
111.92 	-0.0004273 	1165.2 
112.42 	-0.0004273 	1165.2 
112.92 	-0.0004273 	1165.2 
113.42 	-0.0003204 	1165.2 
113.92 	-0.0004273 	1165.2 
114.42 	-0.0003204 	1165.2 
114.92 	-0.0003204 	1165.2 
115.42 	-0.0004273 	1165.2 
115.92 	-0.0003204 	1165.2 
116.42 	-0.0003204 	1165.2 
116.92 	-0.0003204 	1165.2 
117.42 	-0.0003204 	1165.2 
117.92 	-0.0003204 	1165.2 
118.42 	-0.0003204 	1165.2 
118.92 	-0.0003204 	1165.2 
119.42 	-0.0003204 	1331.7 
119.92 	-0.0003204 	1165.2 
120.42 	-0.0003204 	1165.2 
120.92 	-0.0003204 	1165.2 
121.42 	-0.0003204 	1165.2 
121.92 	-0.0003204 	1165.2 
122.42 	-0.0003204 	1165.2 
122.92 	-0.0003204 	1165.2 
123.42 	-0.0003204 	1165.2 
123.92 	-0.0003204 	1165.2 
124.42 	-0.0003204 	1165.2 
124.92 	-0.0003204 	1165.2 
125.42 	-0.0003204 	998.74 
125.92 	-0.0003204 	1331.7 
126.42 	-0.0003204 	1165.2 
126.92 	-0.0004273 	1165.2 
127.42 	-0.0003204 	1165.2 
127.92 	-0.0003204 	1165.2 
128.42 	-0.0003204 	1165.2 
128.92 	-0.0003204 	1165.2 
129.42 	-0.0003204 	1165.2 
129.92 	-0.0003204 	1165.2 
130.42 	-0.0003204 	1165.2 
130.92 	-0.0004273 	1331.7 
131.42 	-0.0003204 	1165.2 
131.92 	-0.0003204 	1165.2 
132.42 	-0.0003204 	1165.2 
132.92 	-0.0004273 	1165.2 
133.42 	-0.0004273 	1165.2 
133.92 	-0.0004273 	1165.2 
134.42 	-0.0004273 	1165.2 
134.92 	-0.0004273 	1165.2 
135.42 	-0.0004273 	1165.2 
135.92 	-0.0003204 	1165.2 
136.42 	-0.0003204 	1165.2 
136.92 	-0.0004273 	1165.2 
137.42 	-0.0003204 	1165.2 
137.92 	-0.0004273 	1165.2 
138.42 	-0.0003204 	1165.2 
138.92 	-0.0003204 	1165.2 
139.42 	-0.0004273 	1165.2 
139.92 	-0.0004273 	1331.7 
140.42 	-0.0004273 	1165.2 
140.92 	-0.0004273 	1165.2 
141.42 	-0.0004273 	1165.2 
141.92 	-0.0004273 	1165.2 
142.42 	-0.0004273 	998.74 
142.92 	-0.0004273 	1165.2 
143.42 	-0.0004273 	1165.2 
143.92 	-0.0004273 	1165.2 
144.42 	-0.0004273 	1165.2 
144.92 	-0.0004273 	1165.2 
145.42 	-0.0004273 	1165.2 
145.92 	-0.0004273 	1165.2 
146.42 	-0.0004273 	1165.2 
146.92 	-0.0004273 	1165.2 
147.42 	-0.0004273 	1165.2 
147.92 	-0.0004273 	1165.2 
148.42 	-0.0004273 	1165.2 
148.92 	-0.0004273 	1165.2 
149.42 	-0.0004273 	1331.7 
149.92 	-0.0004273 	1165.2 
150.42 	-0.0004273 	1165.2 
150.92 	-0.0004273 	1165.2 
151.42 	-0.0004273 	1165.2 
151.92 	-0.0005341 	1165.2 
152.42 	-0.0004273 	1165.2 
152.92 	-0.0004273 	1165.2 
153.42 	-0.0004273 	1165.2 
153.92 	-0.0004273 	1165.2 
154.42 	-0.0004273 	1165.2 
154.92 	-0.0004273 	1165.2 
155.42 	-0.0004273 	1165.2 
155.92 	-0.0004273 	1165.2 
156.42 	-0.0004273 	1165.2 
156.92 	-0.0004273 	1165.2 
157.42 	-0.0004273 	1331.7 
157.92 	-0.0004273 	1331.7 
158.42 	-0.0004273 	1165.2 
158.92 	-0.0004273 	1165.2 
159.42 	-0.0004273 	1165.2 
159.92 	-0.0005341 	1165.2 
160.42 	-0.0005341 	1165.2 
160.92 	-0.0004273 	1165.2 
161.42 	-0.0004273 	1165.2 
161.92 	-0.0004273 	1165.2 
162.42 	-0.0004273 	1165.2 
162.92 	-0.0004273 	1498.1 
163.42 	-0.0004273 	1498.1 
163.92 	-0.0005341 	1664.6 
164.42 	-0.0004273 	1831.0 
164.92 	-0.0003204 	1997.5 
165.37 	-0.0001068 	2663.3 
165.87 	0.00021324 	3162.7 
166.33 	0.00042647 	3828.5 
166.83 	0.00053309 	4161.4 
167.33 	0.00074633 	4827.2 
167.83 	0.0010662 	5493.1 
168.33 	0.0011728 	5826.0 
168.68 	0.0013860 	6491.8 
169.12 	0.0014927 	7157.6 
169.47 	0.0018125 	7823.5 
169.97 	0.0020257 	8322.8 
170.40 	0.0022390 	8988.7 
170.90 	0.0024522 	9488.0 
171.32 	0.0025588 	10154 
171.77 	0.0029853 	10487 
172.15 	0.0028787 	11153 
172.63 	0.0033052 	11486 
173.12 	0.0031985 	12151 
173.50 	0.0036250 	12484 
173.97 	0.0036250 	13150 
174.47 	0.0038383 	13483 
174.97 	0.0041581 	13816 
175.47 	0.0041581 	14315 
175.97 	0.0043713 	14815 
176.47 	0.0045846 	15148 
176.97 	0.0046912 	15647 
177.33 	0.0050111 	16313 
177.78 	0.0051177 	16979 
178.28 	0.0054375 	17478 
178.77 	0.0056508 	18144 
179.27 	0.0058640 	18810 
179.77 	0.0060772 	19143 
180.27 	0.0061839 	19808 
180.77 	0.0065037 	20308 
181.27 	0.0066103 	20807 
181.77 	0.0067169 	20974 
182.27 	0.0068236 	20974 
182.77 	0.0068236 	21140 
183.27 	0.0068236 	21306 
183.77 	0.0068236 	21140 
184.27 	0.0068236 	21140 
184.77 	0.0068236 	21140 
185.27 	0.0068236 	21306 
185.77 	0.0068236 	21140 
186.27 	0.0068236 	20974 
186.77 	0.0068236 	21140 
187.27 	0.0068236 	21140 
187.77 	0.0068236 	21140 
188.27 	0.0068236 	21140 
188.77 	0.0068236 	21140 
189.27 	0.0068236 	21140 
189.77 	0.0068236 	21140 
190.27 	0.0068236 	21140 
190.77 	0.0068236 	21140 
191.27 	0.0068236 	20974 
191.77 	0.0068236 	20974 
192.27 	0.0068236 	21140 
192.77 	0.0068236 	21140 
193.27 	0.0068236 	21140 
193.77 	0.0068236 	21140 
194.27 	0.0068236 	20974 
194.77 	0.0068236 	20974 
195.27 	0.0068236 	21140 
195.77 	0.0068236 	21140 
196.27 	0.0068236 	21140 
196.77 	0.0068236 	21140 
197.27 	0.0068236 	21140 
197.77 	0.0068236 	20974 
198.27 	0.0068236 	21140 
198.77 	0.0068236 	21140 
199.27 	0.0068236 	21140 
199.77 	0.0068236 	21140 
200.27 	0.0067169 	21140 
200.77 	0.0068236 	21140 
201.27 	0.0068236 	21140 
201.77 	0.0068236 	21140 
202.27 	0.0068236 	21140 
202.77 	0.0067169 	21140 
203.27 	0.0068236 	21140 
203.77 	0.0068236 	21140 
204.27 	0.0068236 	21140 
204.77 	0.0068236 	20974 
205.27 	0.0068236 	21140 
205.77 	0.0067169 	21140 
206.27 	0.0068236 	21140 
206.77 	0.0068236 	21140 
207.27 	0.0067169 	21140 
207.77 	0.0068236 	21140 
208.27 	0.0067169 	21140 
208.77 	0.0068236 	21306 
209.27 	0.0067169 	21306 
209.77 	0.0068236 	21140 
210.27 	0.0067169 	21140 
210.77 	0.0067169 	21140 
211.27 	0.0068236 	21140 
211.77 	0.0068236 	21140 
212.27 	0.0068236 	21306 
212.77 	0.0067169 	20974 
213.27 	0.0067169 	21140 
213.77 	0.0067169 	21140 
214.27 	0.0067169 	21140 
214.77 	0.0068236 	21140 
215.27 	0.0067169 	21140 
215.77 	0.0068236 	21140 
216.27 	0.0068236 	20974 
216.77 	0.0067169 	21140 
217.27 	0.0067169 	21140 
217.77 	0.0068236 	21140 
218.27 	0.0067169 	21140 
218.77 	0.0068236 	21140 
219.27 	0.0067169 	21140 
219.77 	0.0068236 	21140 
220.27 	0.0068236 	21140 
220.77 	0.0068236 	21140 
221.27 	0.0067169 	21140 
221.77 	0.0068236 	21306 
222.27 	0.0067169 	21140 
222.77 	0.0067169 	21140 
223.27 	0.0067169 	20974 
223.77 	0.0067169 	21140 
224.27 	0.0068236 	21140 
224.77 	0.0068236 	21140 
225.27 	0.0068236 	21140 
225.77 	0.0068236 	20974 
226.27 	0.0067169 	21140 
226.77 	0.0067169 	21140 
227.27 	0.0067169 	21140 
227.77 	0.0067169 	21140 
228.27 	0.0067169 	21140 
228.77 	0.0067169 	21306 
229.27 	0.0067169 	21140 
229.77 	0.0067169 	21140 
230.27 	0.0067169 	20974 
230.77 	0.0067169 	21140 
231.27 	0.0067169 	21140 
231.77 	0.0067169 	21140 
232.27 	0.0068236 	21140 
232.77 	0.0067169 	21140 
233.27 	0.0067169 	21140 
233.77 	0.0067169 	21140 
234.27 	0.0067169 	21140 
234.77 	0.0067169 	21140 
235.27 	0.0067169 	21140 
235.77 	0.0067169 	21140 
236.27 	0.0067169 	21140 
236.77 	0.0067169 	21140 
237.27 	0.0067169 	21140 
237.77 	0.0067169 	21140 
238.27 	0.0067169 	21140 
238.77 	0.0067169 	21140 
239.27 	0.0067169 	21306 
239.77 	0.0067169 	21140 
240.27 	0.0067169 	21140 
240.77 	0.0067169 	20974 
241.27 	0.0067169 	21306 
241.77 	0.0067169 	21140 
242.27 	0.0065037 	20641 
242.77 	0.0062905 	20141 
243.25 	0.0060772 	19475 
243.75 	0.0059706 	19143 
244.22 	0.0057574 	18477 
244.72 	0.0055441 	17977 
245.22 	0.0053309 	17478 
245.72 	0.0051177 	16979 
246.22 	0.0050111 	16646 
246.72 	0.0046912 	16146 
247.22 	0.0046912 	15813 
247.72 	0.0044780 	15480 
248.22 	0.0042647 	14815 
248.63 	0.0040515 	14149 
249.13 	0.0038383 	13649 
249.55 	0.0036250 	12984 
250.05 	0.0035184 	12651 
250.47 	0.0031985 	11985 
250.97 	0.0030919 	11652 
251.40 	0.0028787 	10986 
251.90 	0.0027721 	10653 
252.33 	0.0024522 	9987.4 
252.83 	0.0023456 	9488.0 
253.33 	0.0021324 	9155.1 
253.77 	0.0019191 	8489.3 
254.27 	0.0018125 	8156.4 
254.77 	0.0014927 	7657.0 
255.20 	0.0013860 	6991.2 
255.70 	0.0011728 	6658.3 
256.17 	0.00095956 	5992.4 
256.67 	0.00085294 	5659.5 
257.17 	0.00063971 	5326.6 
257.55 	0.00042647 	4660.8 
258.05 	0.00031985 	4327.9 
258.55 	0.00010662 	3828.5 
259.05 	-0.0001068 	3495.6 
259.55 	-0.0002136 	2996.2 
260.05 	-0.0004273 	2496.9 
260.55 	-0.0004273 	2330.4 
261.05 	-0.0005341 	2163.9 
261.55 	-0.0005341 	2163.9 
262.05 	-0.0005341 	2163.9 
262.55 	-0.0006409 	1997.5 
263.05 	-0.0006409 	1831.0 
263.55 	-0.0007478 	1831.0 
264.05 	-0.0007478 	1831.0 
264.55 	-0.0007478 	1664.6 
265.05 	-0.0008546 	1664.6 
265.55 	-0.0009614 	1664.6 
266.05 	-0.0008546 	1498.1 
266.55 	-0.0009614 	1498.1 
267.05 	-0.0009614 	1498.1 
267.55 	-0.0009614 	1331.7 
268.05 	-0.0009614 	1331.7 
268.55 	-0.0009614 	1331.7 
269.05 	-0.0009614 	1331.7 
269.55 	-0.0009614 	1331.7 
270.05 	-0.0009614 	1331.7 
270.55 	-0.0009614 	1331.7 
271.05 	-0.0009614 	1165.2 
271.55 	-0.0009614 	1331.7 
272.05 	-0.0009614 	1165.2 
272.55 	-0.0009614 	1331.7 
273.05 	-0.0010683 	1331.7 
273.55 	-0.0009614 	1165.2 
274.05 	-0.0009614 	1165.2 
274.55 	-0.0009614 	1165.2 
275.05 	-0.0010683 	1165.2 
275.55 	-0.0010683 	1165.2 
276.05 	-0.0009614 	1165.2 
276.55 	-0.0010683 	1165.2 
277.05 	-0.0009614 	1165.2 
277.55 	-0.0009614 	1165.2 
278.05 	-0.0009614 	1165.2 
278.55 	-0.0009614 	1165.2 
279.05 	-0.0009614 	1165.2 
279.55 	-0.0009614 	1165.2 
280.05 	-0.0009614 	1165.2 
280.55 	-0.0009614 	1165.2 
281.05 	-0.0009614 	1331.7 
281.55 	-0.0009614 	1165.2 
282.05 	-0.0009614 	1165.2 
282.55 	-0.0009614 	1165.2 
283.05 	-0.0009614 	1165.2 
283.55 	-0.0009614 	1165.2 
284.05 	-0.0009614 	1165.2 
284.55 	-0.0009614 	1165.2 
285.05 	-0.0009614 	1165.2 
285.55 	-0.0009614 	1165.2 
286.05 	-0.0009614 	1165.2 
286.55 	-0.0009614 	1165.2 
287.05 	-0.0009614 	1165.2 
287.55 	-0.0009614 	1165.2 
288.05 	-0.0009614 	1331.7 
288.55 	-0.0009614 	1165.2 
289.05 	-0.0009614 	1165.2 
289.55 	-0.0009614 	1165.2 
290.05 	-0.0009614 	1165.2 
290.55 	-0.0009614 	1165.2 
291.05 	-0.0009614 	1165.2 
291.55 	-0.0009614 	1165.2 
292.05 	-0.0009614 	1331.7 
292.55 	-0.0009614 	1331.7 
293.05 	-0.0009614 	1165.2 
293.55 	-0.0009614 	1165.2 
294.05 	-0.0009614 	1165.2 
294.55 	-0.0009614 	1165.2 
295.05 	-0.0008546 	1165.2 
295.55 	-0.0009614 	1165.2 
296.05 	-0.0009614 	1165.2 
296.55 	-0.0009614 	1165.2 
297.05 	-0.0009614 	1165.2 
297.55 	-0.0009614 	1165.2 
298.05 	-0.0009614 	1165.2 
298.55 	-0.0008546 	1331.7 
299.05 	-0.0009614 	1165.2 
299.55 	-0.0009614 	1165.2 
300.05 	-0.0009614 	1165.2 
300.55 	-0.0009614 	1165.2 
301.05 	-0.0009614 	1165.2 
301.55 	-0.0009614 	1165.2 
302.05 	-0.0008546 	1165.2 
302.55 	-0.0008546 	1165.2 
303.05 	-0.0009614 	1165.2 
303.55 	-0.0009614 	1331.7 
304.05 	-0.0008546 	1331.7 
304.55 	-0.0008546 	1165.2 
305.05 	-0.0009614 	1165.2 
305.55 	-0.0009614 	1165.2 
306.05 	-0.0009614 	1165.2 
306.55 	-0.0009614 	1165.2 
307.05 	-0.0009614 	1165.2 
307.55 	-0.0009614 	1165.2 
308.05 	-0.0009614 	1165.2 
308.55 	-0.0009614 	1165.2 
309.05 	-0.0009614 	1331.7 
309.55 	-0.0009614 	1165.2 
310.05 	-0.0009614 	1165.2 
310.55 	-0.0009614 	1165.2 
311.05 	-0.0009614 	1165.2 
311.55 	-0.0009614 	1165.2 
312.05 	-0.0009614 	1165.2 
312.55 	-0.0009614 	1165.2 
313.05 	-0.0009614 	1165.2 
313.55 	-0.0009614 	1165.2 
314.05 	-0.0009614 	1165.2 
314.55 	-0.0009614 	1165.2 
315.05 	-0.0009614 	1165.2 
315.55 	-0.0009614 	1331.7 
316.05 	-0.0009614 	1165.2 
316.55 	-0.0009614 	1165.2 
317.05 	-0.0009614 	1165.2 
317.55 	-0.0010683 	1165.2 
318.05 	-0.0009614 	1165.2 
318.55 	-0.0009614 	1165.2 
319.05 	-0.0009614 	1165.2 
319.55 	-0.0009614 	1165.2 
320.05 	-0.0009614 	1165.2 
320.55 	-0.0009614 	1165.2 
321.05 	-0.0009614 	1165.2 
321.55 	-0.0009614 	1165.2 
322.05 	-0.0009614 	1165.2 
322.55 	-0.0009614 	1165.2 
323.05 	-0.0009614 	1165.2 
323.55 	-0.0009614 	1498.1 
324.05 	-0.0009614 	1664.6 
324.55 	-0.0009614 	1831.0 
325.05 	-0.0009614 	1831.0 
325.55 	-0.0008546 	1997.5 
326.05 	-0.0008546 	2330.4 
326.52 	-0.0005341 	2996.2 
327.00 	-0.0001068 	3662.0 
327.50 	0.00000 	4161.4 
328.00 	0.00031985 	4660.8 
328.40 	0.00042647 	5326.6 
328.90 	0.00063971 	5826.0 
329.32 	0.00074633 	6491.8 
329.75 	0.00095956 	7157.6 
330.22 	0.0011728 	7823.5 
330.72 	0.0014927 	8489.3 
331.07 	0.0017059 	9155.1 
331.55 	0.0019191 	9820.9 
332.05 	0.0022390 	10320 
332.55 	0.0023456 	10820 
333.05 	0.0025588 	11319 
333.55 	0.0027721 	11985 
334.05 	0.0030919 	12484 
334.55 	0.0031985 	12984 
335.05 	0.0033052 	13483 
335.55 	0.0035184 	13982 
336.05 	0.0036250 	14315 
336.55 	0.0038383 	14648 
337.05 	0.0040515 	15148 
337.52 	0.0042647 	15813 
337.98 	0.0044780 	16479 
338.45 	0.0047978 	17145 
338.95 	0.0050111 	17644 
339.45 	0.0052243 	18144 
339.90 	0.0054375 	18810 
340.40 	0.0055441 	19309 
340.85 	0.0057574 	19975 
341.35 	0.0059706 	20308 
341.85 	0.0061839 	20807 
342.35 	0.0062905 	20974 
342.85 	0.0062905 	20974 
343.35 	0.0062905 	21140 
343.85 	0.0063971 	21140 
344.35 	0.0063971 	21140 
344.85 	0.0062905 	21140 
345.35 	0.0063971 	21306 
345.85 	0.0062905 	21140 
346.35 	0.0063971 	21140 
346.85 	0.0062905 	21140 
347.35 	0.0063971 	21140 
347.85 	0.0062905 	21140 
348.35 	0.0063971 	21140 
348.85 	0.0063971 	21140 
349.35 	0.0062905 	21140 
349.85 	0.0063971 	21140 
350.35 	0.0063971 	21306 
350.85 	0.0062905 	21140 
351.35 	0.0063971 	21140 
351.85 	0.0062905 	20974 
352.35 	0.0062905 	20974 
352.85 	0.0063971 	20974 
353.35 	0.0062905 	21140 
353.85 	0.0063971 	21140 
354.35 	0.0062905 	21140 
354.85 	0.0063971 	21140 
355.35 	0.0062905 	21140 
355.85 	0.0062905 	21140 
356.35 	0.0063971 	21140 
356.85 	0.0063971 	21140 
357.35 	0.0063971 	21140 
357.85 	0.0063971 	21140 
358.35 	0.0062905 	21140 
358.85 	0.0063971 	21140 
359.35 	0.0062905 	21140 
359.85 	0.0063971 	21140 
360.35 	0.0063971 	20974 
360.85 	0.0062905 	20974 
361.35 	0.0063971 	21140 
361.85 	0.0062905 	21306 
362.35 	0.0063971 	21306 
362.85 	0.0062905 	21140 
363.35 	0.0063971 	21140 
363.85 	0.0063971 	21140 
364.35 	0.0063971 	21140 
364.85 	0.0062905 	21140 
365.35 	0.0063971 	21140 
365.85 	0.0062905 	21140 
366.35 	0.0063971 	21140 
366.85 	0.0062905 	21140 
367.35 	0.0063971 	21306 
367.85 	0.0062905 	21140 
368.35 	0.0063971 	20974 
368.85 	0.0062905 	21140 
369.35 	0.0062905 	21306 
369.85 	0.0063971 	21140 
370.35 	0.0062905 	21140 
370.85 	0.0063971 	21140 
371.35 	0.0062905 	21140 
371.85 	0.0063971 	21140 
372.35 	0.0063971 	21140 
372.85 	0.0062905 	21140 
373.35 	0.0062905 	21140 
373.85 	0.0062905 	21140 
374.35 	0.0063971 	21140 
374.85 	0.0063971 	21306 
375.35 	0.0063971 	21140 
375.85 	0.0063971 	21140 
376.35 	0.0062905 	21140 
376.85 	0.0063971 	21140 
377.35 	0.0062905 	21140 
377.85 	0.0062905 	21140 
378.35 	0.0062905 	21140 
378.85 	0.0063971 	21140 
379.35 	0.0062905 	21140 
379.85 	0.0062905 	21140 
380.35 	0.0062905 	21140 
380.85 	0.0062905 	20974 
381.35 	0.0062905 	21140 
381.85 	0.0063971 	21140 
382.35 	0.0063971 	21140 
382.85 	0.0063971 	21306 
383.35 	0.0063971 	21140 
383.85 	0.0062905 	21140 
384.35 	0.0062905 	21140 
384.85 	0.0062905 	21140 
385.35 	0.0062905 	21140 
385.85 	0.0063971 	21140 
386.35 	0.0062905 	21140 
386.85 	0.0062905 	21140 
387.35 	0.0063971 	21306 
387.85 	0.0062905 	21306 
388.35 	0.0062905 	21140 
388.85 	0.0062905 	20974 
389.35 	0.0062905 	21140 
389.85 	0.0062905 	21140 
390.35 	0.0063971 	21306 
390.85 	0.0063971 	21140 
391.35 	0.0062905 	21140 
391.85 	0.0062905 	21140 
392.35 	0.0062905 	21140 
392.85 	0.0063971 	21140 
393.35 	0.0062905 	21140 
393.85 	0.0062905 	21140 
394.35 	0.0062905 	21140 
394.85 	0.0062905 	21140 
395.35 	0.0062905 	21140 
395.85 	0.0062905 	21140 
396.35 	0.0062905 	21140 
396.85 	0.0063971 	21140 
397.35 	0.0062905 	21140 
397.85 	0.0062905 	21140 
398.35 	0.0063971 	21140 
398.85 	0.0062905 	21140 
399.35 	0.0062905 	21140 
399.85 	0.0062905 	21140 
400.35 	0.0062905 	21306 
400.85 	0.0063971 	21140 
401.35 	0.0062905 	21140 
401.85 	0.0062905 	21140 
402.35 	0.0062905 	20974 
402.85 	0.0060772 	20641 
403.33 	0.0058640 	19975 
403.83 	0.0056508 	19475 
404.33 	0.0055441 	19143 
404.78 	0.0053309 	18477 
405.28 	0.0051177 	17977 
405.78 	0.0049044 	17478 
406.28 	0.0047978 	16979 
406.78 	0.0045846 	16646 
407.28 	0.0042647 	16313 
407.78 	0.0042647 	15813 
408.28 	0.0040515 	15314 
408.78 	0.0038383 	14815 
409.22 	0.0036250 	14149 
409.72 	0.0034118 	13649 
410.12 	0.0030919 	12984 
410.62 	0.0028787 	12651 
411.00 	0.0028787 	11985 
411.50 	0.0026655 	11652 
411.97 	0.0024522 	10986 
412.47 	0.0022390 	10487 
412.97 	0.0019191 	9987.4 
413.47 	0.0019191 	9654.5 
413.75 	0.0017059 	8988.7 
414.25 	0.0015993 	8489.3 
414.75 	0.0013860 	8156.4 
415.25 	0.0010662 	7823.5 
415.62 	0.00095956 	7157.6 
416.12 	0.00074633 	6991.2 
416.43 	0.00063971 	6325.4 
416.93 	0.00053309 	6158.9 
417.32 	0.00031985 	5493.1 
417.82 	0.00010662 	5160.2 
418.32 	-0.0001068 	4660.8 
418.82 	-0.0002136 	4161.4 
419.32 	-0.0004273 	3662.0 
419.82 	-0.0006409 	3329.1 
420.32 	-0.0007478 	2829.8 
420.82 	-0.0008546 	2496.9 
421.32 	-0.0009614 	2330.4 
421.82 	-0.0009614 	2163.9 
422.32 	-0.0009614 	2163.9 
422.82 	-0.0009614 	2163.9 
423.32 	-0.0010683 	2163.9 
423.82 	-0.0010683 	1997.5 
424.32 	-0.0010683 	1831.0 
424.82 	-0.0011751 	1831.0 
425.32 	-0.0011751 	1831.0 
425.82 	-0.0011751 	1664.6 
426.32 	-0.0012820 	1498.1 
426.82 	-0.0012820 	1664.6 
427.32 	-0.0012820 	1498.1 
427.82 	-0.0012820 	1498.1 
428.32 	-0.0012820 	1331.7 
428.82 	-0.0012820 	1498.1 
429.32 	-0.0012820 	1331.7 
429.82 	-0.0012820 	1331.7 
430.32 	-0.0012820 	1331.7 
430.82 	-0.0012820 	1331.7 
431.32 	-0.0012820 	1331.7 
431.82 	-0.0012820 	1331.7 
432.32 	-0.0012820 	1331.7 
432.82 	-0.0012820 	1331.7 
433.32 	-0.0012820 	1331.7 
433.82 	-0.0012820 	1331.7 
434.32 	-0.0012820 	1331.7 
434.82 	-0.0012820 	1331.7 
435.32 	-0.0012820 	1331.7 
435.82 	-0.0012820 	1331.7 
436.32 	-0.0012820 	1331.7 
436.82 	-0.0012820 	1331.7 
437.32 	-0.0012820 	1165.2 
437.82 	-0.0012820 	1165.2 
438.32 	-0.0012820 	1165.2 
438.82 	-0.0012820 	1165.2 
439.32 	-0.0012820 	1331.7 
439.82 	-0.0012820 	1165.2 
440.32 	-0.0012820 	1331.7 
440.82 	-0.0012820 	1165.2 
441.32 	-0.0012820 	1331.7 
441.82 	-0.0012820 	1331.7 
442.32 	-0.0012820 	1331.7 
442.82 	-0.0012820 	1165.2 
443.32 	-0.0011751 	1331.7 
443.82 	-0.0012820 	1331.7 
444.32 	-0.0012820 	1165.2 
444.82 	-0.0012820 	1165.2 
445.32 	-0.0011751 	1165.2 
445.82 	-0.0012820 	1331.7 
446.32 	-0.0011751 	1165.2 
446.82 	-0.0011751 	1165.2 
447.32 	-0.0011751 	1165.2 
447.82 	-0.0011751 	1165.2 
448.32 	-0.0011751 	1165.2 
448.82 	-0.0011751 	1165.2 
449.32 	-0.0010683 	1165.2 
449.82 	-0.0011751 	1165.2 
450.32 	-0.0011751 	1165.2 
450.82 	-0.0011751 	1165.2 
451.32 	-0.0010683 	1165.2 
451.82 	-0.0010683 	1331.7 
452.32 	-0.0010683 	1165.2 
452.82 	-0.0009614 	1165.2 
453.32 	-0.0010683 	1165.2 
453.82 	-0.0010683 	1331.7 
454.32 	-0.0009614 	1165.2 
454.82 	-0.0010683 	1165.2 
455.32 	-0.0010683 	1165.2 
455.82 	-0.0010683 	1165.2 
456.32 	-0.0010683 	1165.2 
456.82 	-0.0009614 	1165.2 
457.32 	-0.0009614 	1165.2 
457.82 	-0.0009614 	1165.2 
458.32 	-0.0009614 	1165.2 
458.82 	-0.0010683 	1165.2 
459.32 	-0.0010683 	1165.2 
459.82 	-0.0009614 	1165.2 
460.32 	-0.0010683 	1165.2 
460.82 	-0.0010683 	1165.2 
461.32 	-0.0010683 	1165.2 
461.82 	-0.0009614 	1165.2 
462.32 	-0.0010683 	1165.2 
462.82 	-0.0010683 	1165.2 
463.32 	-0.0009614 	1165.2 
463.82 	-0.0009614 	1165.2 
464.32 	-0.0010683 	1165.2 
464.82 	-0.0010683 	1165.2 
465.32 	-0.0010683 	1165.2 
465.82 	-0.0009614 	1165.2 
466.32 	-0.0010683 	1165.2 
466.82 	-0.0010683 	1165.2 
467.32 	-0.0010683 	1165.2 
467.82 	-0.0010683 	1165.2 
468.32 	-0.0010683 	1165.2 
468.82 	-0.0010683 	998.74 
469.32 	-0.0009614 	1165.2 
469.82 	-0.0009614 	1331.7 
470.32 	-0.0010683 	1165.2 
470.82 	-0.0010683 	1165.2 
471.32 	-0.0010683 	1165.2 
471.82 	-0.0010683 	1331.7 
472.32 	-0.0010683 	1165.2 
472.82 	-0.0010683 	1165.2 
473.32 	-0.0010683 	1165.2 
473.82 	-0.0010683 	1165.2 
474.32 	-0.0010683 	1165.2 
474.82 	-0.0010683 	1165.2 
475.32 	-0.0010683 	1165.2 
475.82 	-0.0010683 	1165.2 
476.32 	-0.0010683 	1165.2 
476.82 	-0.0010683 	1331.7 
477.32 	-0.0010683 	1165.2 
477.82 	-0.0010683 	1165.2 
478.32 	-0.0010683 	1165.2 
478.82 	-0.0010683 	1165.2 
479.32 	-0.0010683 	1165.2 
479.82 	-0.0010683 	1165.2 
480.32 	-0.0010683 	1165.2 
480.82 	-0.0010683 	1165.2 
481.32 	-0.0010683 	1165.2 
481.82 	-0.0010683 	1165.2 
482.32 	-0.0010683 	1165.2 
482.82 	-0.0010683 	1165.2 
483.25 	-0.0010683 	1165.2 
483.75 	-0.0010683 	1165.2 
484.25 	-0.0010683 	1331.7 
484.75 	-0.0010683 	1165.2 
485.25 	-0.0010683 	1165.2 
485.75 	-0.0010683 	1331.7 
486.25 	-0.0010683 	1331.7 
486.75 	-0.0010683 	1165.2 
487.25 	-0.0010683 	1165.2 
487.75 	-0.0010683 	1165.2 
488.25 	-0.0010683 	1165.2 
488.75 	-0.0010683 	1165.2 
489.25 	-0.0010683 	1165.2 
489.75 	-0.0010683 	1165.2 
490.25 	-0.0010683 	1331.7 
490.75 	-0.0010683 	1165.2 
491.25 	-0.0010683 	1165.2 
491.75 	-0.0011751 	1165.2 
492.25 	-0.0010683 	1165.2 
492.75 	-0.0010683 	1165.2 
493.25 	-0.0010683 	998.74 
493.75 	-0.0011751 	1165.2 
494.25 	-0.0010683 	1165.2 
494.75 	-0.0010683 	1165.2 
495.25 	-0.0010683 	1165.2 
495.75 	-0.0010683 	1165.2 
496.25 	-0.0010683 	1165.2 
496.75 	-0.0010683 	1331.7 
497.25 	-0.0010683 	1331.7 
497.75 	-0.0010683 	1165.2 
498.25 	-0.0010683 	1165.2 
498.75 	-0.0010683 	1165.2 
499.25 	-0.0011751 	1165.2 
499.75 	-0.0010683 	1165.2 
500.25 	-0.0011751 	1331.7 
500.75 	-0.0010683 	1165.2 
501.25 	-0.0010683 	1165.2 
501.75 	-0.0011751 	1331.7 
502.25 	-0.0010683 	1165.2 
502.75 	-0.0010683 	1165.2 
503.25 	-0.0010683 	998.74 
503.75 	-0.0010683 	1165.2 
504.25 	-0.0010683 	1165.2 
504.75 	-0.0011751 	1165.2 
505.25 	-0.0010683 	1165.2 
505.75 	-0.0010683 	1165.2 
506.25 	-0.0010683 	1165.2 
506.75 	-0.0010683 	1165.2 
507.25 	-0.0010683 	1165.2 
507.75 	-0.0010683 	1165.2 
508.25 	-0.0010683 	1165.2 
508.75 	-0.0011751 	1165.2 
509.25 	-0.0010683 	1165.2 
509.75 	-0.0011751 	1165.2 
510.25 	-0.0010683 	1165.2 
510.75 	-0.0010683 	1165.2 
511.25 	-0.0011751 	1165.2 
511.75 	-0.0010683 	1165.2 
512.25 	-0.0011751 	998.74 
512.75 	-0.0010683 	1165.2 
513.25 	-0.0011751 	1331.7 
513.75 	-0.0010683 	1331.7 
514.25 	-0.0010683 	998.74 
514.75 	-0.0011751 	1165.2 
515.25 	-0.0010683 	1498.1 
515.75 	-0.0010683 	1664.6 
516.25 	-0.0010683 	1831.0 
516.75 	-0.0010683 	1831.0 
517.25 	-0.0009614 	1997.5 
517.75 	-0.0009614 	2163.9 
518.25 	-0.0007478 	2496.9 
518.62 	-0.0005341 	3162.7 
519.05 	-0.0003204 	3828.5 
519.50 	-0.0001068 	4494.3 
520.00 	0.00010662 	4660.8 
520.28 	0.00021324 	5326.6 
520.78 	0.00042647 	5826.0 
521.23 	0.00063971 	6491.8 
521.65 	0.00095956 	7157.6 
522.13 	0.0011728 	7823.5 
522.60 	0.0013860 	8489.3 
522.95 	0.0014927 	9155.1 
523.43 	0.0017059 	9820.9 
523.93 	0.0020257 	10320 
524.43 	0.0021324 	10820 
524.93 	0.0023456 	11486 
525.43 	0.0025588 	11818 
525.83 	0.0026655 	12484 
526.33 	0.0028787 	12984 
526.83 	0.0031985 	13483 
527.33 	0.0033052 	13816 
527.83 	0.0033052 	14315 
528.33 	0.0034118 	14648 
528.83 	0.0036250 	14981 
529.27 	0.0038383 	15647 
529.72 	0.0040515 	16313 
530.17 	0.0044780 	16812 
530.57 	0.0046912 	17478 
531.07 	0.0047978 	17977 
531.57 	0.0050111 	18643 
532.07 	0.0052243 	18976 
532.48 	0.0054375 	19642 
532.98 	0.0055441 	20141 
533.48 	0.0057574 	20641 
533.98 	0.0058640 	20807 
534.48 	0.0058640 	20974 
534.98 	0.0058640 	21140 
535.48 	0.0059706 	21140 
535.98 	0.0059706 	21140 
536.48 	0.0059706 	21140 
536.98 	0.0059706 	21140 
537.48 	0.0059706 	21140 
537.98 	0.0059706 	21140 
538.48 	0.0059706 	21140 
538.98 	0.0059706 	21140 
539.48 	0.0059706 	21140 
539.98 	0.0058640 	21140 
540.48 	0.0059706 	21140 
540.98 	0.0058640 	20974 
541.48 	0.0059706 	21306 
541.98 	0.0059706 	21140 
542.48 	0.0058640 	21140 
542.98 	0.0058640 	21140 
543.48 	0.0059706 	20974 
543.98 	0.0058640 	21140 
544.48 	0.0059706 	21306 
544.98 	0.0059706 	21140 
545.48 	0.0058640 	21140 
545.98 	0.0059706 	21140 
546.48 	0.0059706 	21140 
546.98 	0.0058640 	21140 
547.48 	0.0059706 	21140 
547.98 	0.0059706 	21140 
548.48 	0.0058640 	21140 
548.98 	0.0059706 	21140 
549.48 	0.0058640 	21140 
549.98 	0.0059706 	21306 
550.48 	0.0058640 	21140 
550.98 	0.0058640 	21140 
551.48 	0.0059706 	21140 
551.98 	0.0058640 	21140 
552.48 	0.0059706 	21140 
552.98 	0.0059706 	21140 
553.48 	0.0059706 	21140 
553.98 	0.0059706 	21140 
554.48 	0.0058640 	21140 
554.98 	0.0059706 	21140 
555.48 	0.0059706 	21140 
555.98 	0.0059706 	21140 
556.48 	0.0058640 	21140 
556.98 	0.0058640 	20974 
557.48 	0.0059706 	21306 
557.98 	0.0059706 	21140 
558.48 	0.0058640 	21140 
558.98 	0.0059706 	21140 
559.48 	0.0058640 	21140 
559.98 	0.0059706 	21140 
560.48 	0.0059706 	21140 
560.98 	0.0058640 	21140 
561.48 	0.0059706 	20974 
561.98 	0.0058640 	21140 
562.48 	0.0059706 	21140 
562.98 	0.0058640 	21140 
563.48 	0.0059706 	21140 
563.98 	0.0058640 	21140 
564.48 	0.0058640 	21140 
564.98 	0.0058640 	21140 
565.48 	0.0059706 	21306 
565.98 	0.0058640 	21140 
566.48 	0.0059706 	21140 
566.98 	0.0058640 	21140 
567.48 	0.0058640 	21140 
567.98 	0.0059706 	21306 
568.48 	0.0058640 	21306 
568.98 	0.0058640 	21140 
569.48 	0.0059706 	21140 
569.98 	0.0058640 	21306 
570.48 	0.0059706 	21140 
570.98 	0.0058640 	21140 
571.48 	0.0058640 	21140 
571.98 	0.0058640 	21140 
572.48 	0.0058640 	21140 
572.98 	0.0059706 	21140 
573.48 	0.0059706 	21140 
573.98 	0.0058640 	21140 
574.48 	0.0058640 	21306 
574.98 	0.0058640 	21140 
575.48 	0.0058640 	21140 
575.98 	0.0058640 	21140 
576.48 	0.0059706 	21140 
576.98 	0.0059706 	21140 
577.48 	0.0058640 	21140 
577.98 	0.0059706 	21140 
578.48 	0.0058640 	21140 
578.98 	0.0058640 	21140 
579.48 	0.0058640 	21140 
579.98 	0.0058640 	21140 
580.48 	0.0058640 	20974 
580.98 	0.0058640 	21140 
581.48 	0.0058640 	21140 
581.98 	0.0059706 	21140 
582.48 	0.0058640 	21140 
582.98 	0.0058640 	21140 
583.48 	0.0058640 	21140 
583.98 	0.0059706 	21140 
584.48 	0.0058640 	21140 
584.98 	0.0059706 	21140 
585.48 	0.0058640 	21140 
585.98 	0.0057574 	21140 
586.48 	0.0058640 	21140 
586.98 	0.0058640 	21140 
587.48 	0.0058640 	21140 
587.98 	0.0058640 	21140 
588.48 	0.0058640 	21140 
588.98 	0.0059706 	21140 
589.48 	0.0058640 	21140 
589.98 	0.0059706 	21140 
590.48 	0.0058640 	21140 
590.98 	0.0057574 	21140 
591.48 	0.0058640 	21140 
591.98 	0.0059706 	21140 
592.48 	0.0058640 	21306 
592.98 	0.0059706 	21140 
593.48 	0.0058640 	21140 
593.70 	0.0058640 	20974 
594.20 	0.0058640 	20974 
594.70 	0.0058640 	21140 
595.20 	0.0059706 	21140 
595.70 	0.0058640 	21140 
596.20 	0.0058640 	21140 
596.70 	0.0058640 	21140 
597.20 	0.0059706 	21140 
597.70 	0.0058640 	21140 
598.20 	0.0058640 	21140 
598.70 	0.0058640 	21140 
599.20 	0.0058640 	20974 
599.70 	0.0058640 	21306 
600.20 	0.0058640 	21140 
600.70 	0.0059706 	21140 
601.20 	0.0058640 	20974 
601.70 	0.0058640 	21140 
602.20 	0.0058640 	21140 
602.70 	0.0058640 	21140 
603.20 	0.0058640 	21140 
603.70 	0.0057574 	20974 
604.20 	0.0058640 	21140 
604.70 	0.0058640 	21140 
605.20 	0.0058640 	21140 
605.70 	0.0057574 	20974 
606.20 	0.0058640 	21140 
606.70 	0.0058640 	21140 
607.20 	0.0058640 	21140 
607.70 	0.0058640 	21140 
608.20 	0.0058640 	21140 
608.70 	0.0058640 	21140 
609.20 	0.0058640 	21140 
609.70 	0.0058640 	21306 
610.20 	0.0058640 	21140 
610.70 	0.0057574 	21140 
611.20 	0.0058640 	21140 
611.70 	0.0059706 	21140 
612.20 	0.0058640 	21306 
612.70 	0.0057574 	21140 
613.20 	0.0058640 	21140 
613.70 	0.0059706 	21140 
614.20 	0.0058640 	21140 
614.70 	0.0058640 	21140 
615.20 	0.0058640 	21140 
615.70 	0.0057574 	21140 
616.20 	0.0058640 	21140 
616.70 	0.0058640 	21306 
617.20 	0.0059706 	21306 
617.70 	0.0057574 	21140 
618.20 	0.0057574 	20974 
618.70 	0.0057574 	21140 
619.20 	0.0058640 	21140 
619.70 	0.0058640 	21140 
620.20 	0.0058640 	21140 
620.70 	0.0058640 	21140 
621.20 	0.0058640 	21140 
621.70 	0.0058640 	21140 
622.20 	0.0058640 	21306 
622.70 	0.0058640 	21140 
623.20 	0.0058640 	21140 
623.70 	0.0058640 	21140 
624.20 	0.0058640 	20974 
624.70 	0.0058640 	21140 
625.20 	0.0058640 	21140 
625.70 	0.0058640 	21140 
626.20 	0.0058640 	21140 
626.70 	0.0058640 	21140 
627.20 	0.0058640 	21140 
627.70 	0.0058640 	21306 
628.20 	0.0058640 	21140 
628.70 	0.0058640 	21140 
629.20 	0.0058640 	21140 
629.70 	0.0058640 	21140 
630.20 	0.0058640 	21140 
630.70 	0.0058640 	21140 
631.20 	0.0058640 	21140 
631.70 	0.0058640 	21140 
632.20 	0.0058640 	21140 
632.70 	0.0058640 	21140 
633.20 	0.0058640 	21140 
633.70 	0.0058640 	21140 
634.20 	0.0058640 	21140 
634.70 	0.0058640 	21140 
635.20 	0.0058640 	20974 
635.70 	0.0058640 	21140 
636.20 	0.0058640 	21306 
636.70 	0.0058640 	21140 
637.20 	0.0058640 	21140 
637.70 	0.0058640 	21140 
638.20 	0.0058640 	21140 
638.70 	0.0058640 	21306 
639.20 	0.0058640 	21306 
639.70 	0.0058640 	20974 
640.20 	0.0058640 	21140 
640.70 	0.0058640 	21140 
641.20 	0.0058640 	20974 
641.70 	0.0058640 	21140 
642.20 	0.0058640 	21140 
642.70 	0.0058640 	21140 
643.20 	0.0058640 	20974 
643.70 	0.0058640 	20974 
644.20 	0.0058640 	21140 
644.70 	0.0058640 	21140 
645.20 	0.0058640 	21140 
645.70 	0.0058640 	21140 
646.20 	0.0058640 	21140 
646.70 	0.0058640 	21140 
647.20 	0.0058640 	21140 
647.70 	0.0058640 	21140 
648.20 	0.0058640 	21140 
648.70 	0.0058640 	21140 
649.20 	0.0058640 	21140 
649.70 	0.0058640 	21140 
650.20 	0.0058640 	21140 
650.70 	0.0058640 	21140 
651.20 	0.0058640 	21140 
651.70 	0.0058640 	21140 
652.20 	0.0058640 	21140 
652.70 	0.0058640 	21140 
653.20 	0.0058640 	21306 
653.70 	0.0058640 	21140 
654.20 	0.0058640 	21140 
654.70 	0.0058640 	21140 
655.20 	0.0058640 	21140 
655.70 	0.0058640 	21140 
656.20 	0.0058640 	21140 
656.70 	0.0058640 	21140 
657.20 	0.0058640 	21140 
657.70 	0.0058640 	21140 
658.20 	0.0058640 	21140 
658.70 	0.0058640 	21140 
659.20 	0.0058640 	21140 
659.70 	0.0058640 	21140 
660.20 	0.0058640 	21140 
660.70 	0.0058640 	21140 
661.20 	0.0058640 	21306 
661.70 	0.0058640 	21140 
662.20 	0.0058640 	21140 
662.70 	0.0058640 	21140 
663.20 	0.0058640 	21140 
663.70 	0.0058640 	21140 
664.20 	0.0058640 	21140 
664.70 	0.0058640 	21140 
665.20 	0.0058640 	21140 
665.70 	0.0058640 	20974 
666.20 	0.0058640 	21306 
666.70 	0.0058640 	21140 
667.20 	0.0058640 	21140 
667.70 	0.0058640 	20974 
668.20 	0.0058640 	20974 
668.70 	0.0058640 	21140 
669.20 	0.0058640 	21140 
669.70 	0.0058640 	21306 
670.20 	0.0058640 	21140 
670.70 	0.0058640 	21140 
671.20 	0.0058640 	21140 
671.70 	0.0058640 	21140 
672.20 	0.0058640 	21140 
672.70 	0.0058640 	21140 
673.20 	0.0058640 	20974 
673.70 	0.0058640 	20974 
674.20 	0.0058640 	21140 
674.70 	0.0058640 	21140 
675.20 	0.0058640 	21140 
675.70 	0.0058640 	21140 
676.20 	0.0058640 	21140 
676.70 	0.0058640 	21140 
677.20 	0.0058640 	20974 
677.70 	0.0058640 	21140 
678.20 	0.0058640 	21140 
678.70 	0.0058640 	21140 
679.20 	0.0058640 	21140 
679.70 	0.0058640 	21140 
680.20 	0.0058640 	21140 
680.70 	0.0058640 	21140 
681.20 	0.0058640 	21140 
681.70 	0.0058640 	21140 
682.20 	0.0058640 	20974 
682.70 	0.0058640 	21140 
683.20 	0.0058640 	21140 
683.70 	0.0058640 	21140 
684.20 	0.0058640 	21306 
684.70 	0.0058640 	21140 
685.20 	0.0058640 	21140 
685.70 	0.0058640 	21140 
686.20 	0.0058640 	21140 
686.70 	0.0058640 	21140 
687.20 	0.0058640 	21140 
687.70 	0.0058640 	21140 
688.20 	0.0058640 	21140 
688.70 	0.0058640 	21140 
689.20 	0.0058640 	21140 
689.70 	0.0058640 	21306 
690.20 	0.0058640 	21140 
690.70 	0.0058640 	21140 
691.20 	0.0058640 	21140 
691.70 	0.0058640 	21140 
692.20 	0.0058640 	21140 
692.70 	0.0058640 	21140 
693.20 	0.0058640 	21140 
693.70 	0.0058640 	21140 
694.20 	0.0058640 	21140 
694.70 	0.0058640 	21140 
695.20 	0.0058640 	21140 
695.70 	0.0058640 	21140 
696.20 	0.0058640 	21140 
696.70 	0.0058640 	21306 
697.20 	0.0058640 	21140 
697.70 	0.0058640 	21140 
698.20 	0.0058640 	21140 
698.70 	0.0058640 	21140 
699.20 	0.0058640 	20974 
699.70 	0.0058640 	21140 
700.20 	0.0058640 	21140 
700.70 	0.0058640 	21140 
701.20 	0.0058640 	21140 
701.70 	0.0058640 	21140 
702.20 	0.0058640 	21140 
702.70 	0.0058640 	21306 
703.20 	0.0058640 	21306 
703.70 	0.0058640 	21140 
704.20 	0.0058640 	20974 
704.70 	0.0058640 	21140 
705.20 	0.0058640 	21140 
705.70 	0.0058640 	21140 
706.20 	0.0058640 	21140 
706.70 	0.0058640 	21140 
707.20 	0.0058640 	21306 
707.70 	0.0058640 	21140 
708.20 	0.0058640 	21140 
708.70 	0.0058640 	20974 
709.20 	0.0058640 	21140 
709.70 	0.0058640 	21140 
710.20 	0.0058640 	21140 
710.70 	0.0058640 	21140 
711.20 	0.0058640 	21140 
711.70 	0.0058640 	21140 
712.20 	0.0058640 	21140 
712.70 	0.0058640 	21140 
713.20 	0.0058640 	21140 
713.70 	0.0058640 	21140 
714.20 	0.0058640 	21140 
714.70 	0.0058640 	21140 
715.20 	0.0058640 	21140 
715.70 	0.0058640 	21140 
716.20 	0.0058640 	21140 
716.70 	0.0058640 	21140 
717.20 	0.0058640 	21140 
717.70 	0.0058640 	21306 
718.20 	0.0058640 	21140 
718.70 	0.0058640 	21140 
719.20 	0.0058640 	21140 
719.70 	0.0058640 	21140 
720.20 	0.0058640 	21140 
720.70 	0.0058640 	21140 
721.20 	0.0058640 	21140 
721.70 	0.0058640 	21306 
722.20 	0.0058640 	21140 
722.70 	0.0058640 	21140 
723.20 	0.0058640 	21140 
723.70 	0.0058640 	21140 
724.20 	0.0058640 	21306 
724.70 	0.0058640 	21140 
725.20 	0.0058640 	21140 
725.70 	0.0058640 	20974 
726.20 	0.0058640 	21140 
726.70 	0.0058640 	21140 
727.20 	0.0058640 	21140 
727.70 	0.0058640 	21140 
728.20 	0.0058640 	21140 
728.70 	0.0058640 	21140 
729.20 	0.0058640 	21306 
729.70 	0.0058640 	21140 
730.20 	0.0058640 	21140 
730.70 	0.0058640 	20974 
731.20 	0.0058640 	21140 
731.70 	0.0058640 	21140 
732.20 	0.0058640 	21140 
732.70 	0.0058640 	21140 
733.20 	0.0058640 	21140 
733.70 	0.0058640 	21140 
734.20 	0.0058640 	21140 
734.70 	0.0058640 	21140 
735.20 	0.0058640 	21306 
735.70 	0.0058640 	21306 
736.20 	0.0058640 	21140 
736.70 	0.0058640 	20974 
737.20 	0.0058640 	20974 
737.70 	0.0058640 	21140 
738.20 	0.0058640 	21306 
738.70 	0.0058640 	21140 
739.20 	0.0058640 	21140 
739.70 	0.0058640 	21140 
740.20 	0.0058640 	21140 
740.70 	0.0058640 	21306 
741.20 	0.0058640 	21140 
741.70 	0.0058640 	21140 
742.20 	0.0058640 	21140 
742.70 	0.0058640 	21140 
743.20 	0.0058640 	21306 
743.70 	0.0058640 	21140 
744.20 	0.0058640 	21140 
744.70 	0.0058640 	21140 
745.20 	0.0058640 	21140 
745.70 	0.0058640 	21140 
746.20 	0.0058640 	21140 
746.70 	0.0058640 	21140 
747.20 	0.0058640 	21140 
747.70 	0.0058640 	21140 
748.20 	0.0058640 	21140 
748.70 	0.0058640 	21140 
749.20 	0.0058640 	20974 
749.70 	0.0058640 	21140 
750.20 	0.0058640 	21140 
750.70 	0.0058640 	21306 
751.20 	0.0058640 	21140 
751.70 	0.0058640 	21140 
752.20 	0.0058640 	21140 
752.70 	0.0058640 	21306 
753.20 	0.0058640 	21140 
753.70 	0.0058640 	21140 
754.20 	0.0058640 	21140 
754.70 	0.0058640 	21140 
755.20 	0.0058640 	21306 
755.70 	0.0058640 	21140 
756.20 	0.0058640 	21140 
756.70 	0.0058640 	20974 
757.20 	0.0058640 	21140 
757.70 	0.0058640 	21306 
758.20 	0.0058640 	21306 
758.70 	0.0058640 	21140 
759.20 	0.0058640 	21140 
759.70 	0.0058640 	21140 
760.20 	0.0058640 	21140 
760.70 	0.0058640 	21140 
761.20 	0.0058640 	21140 
761.70 	0.0058640 	21140 
762.20 	0.0058640 	21140 
762.70 	0.0058640 	21140 
763.20 	0.0058640 	21306 
763.70 	0.0058640 	21306 
764.20 	0.0058640 	21140 
764.70 	0.0058640 	21140 
765.20 	0.0058640 	21140 
765.70 	0.0058640 	21140 
766.20 	0.0058640 	21140 
766.70 	0.0058640 	21140 
767.20 	0.0058640 	21140 
767.70 	0.0058640 	21140 
768.20 	0.0058640 	21140 
768.70 	0.0058640 	21306 
769.20 	0.0058640 	21140 
769.70 	0.0058640 	20974 
770.20 	0.0058640 	21140 
770.70 	0.0058640 	21140 
771.20 	0.0058640 	21140 
771.70 	0.0058640 	21140 
772.20 	0.0058640 	20974 
772.70 	0.0058640 	21140 
773.20 	0.0058640 	21140 
773.70 	0.0058640 	21140 
774.20 	0.0058640 	21140 
774.70 	0.0058640 	21140 
775.20 	0.0058640 	21140 
775.70 	0.0058640 	21140 
776.20 	0.0058640 	21140 
776.70 	0.0058640 	21140 
777.20 	0.0058640 	21140 
777.70 	0.0058640 	20974 
778.20 	0.0058640 	20974 
778.70 	0.0058640 	21140 
779.20 	0.0058640 	21306 
779.70 	0.0058640 	21140 
780.20 	0.0058640 	21140 
780.70 	0.0058640 	21140 
781.20 	0.0058640 	21140 
781.70 	0.0058640 	21140 
782.20 	0.0058640 	21140 
782.70 	0.0058640 	21140 
783.20 	0.0058640 	21140 
783.70 	0.0058640 	21140 
784.20 	0.0058640 	21306 
784.70 	0.0058640 	21140 
785.20 	0.0058640 	21140 
785.70 	0.0058640 	20974 
786.20 	0.0058640 	21140 
786.70 	0.0058640 	21140 
787.20 	0.0058640 	21140 
787.70 	0.0058640 	21140 
788.20 	0.0058640 	21140 
788.70 	0.0058640 	21140 
789.20 	0.0058640 	21140 
789.70 	0.0058640 	21306 
790.20 	0.0058640 	21140 
790.70 	0.0058640 	20974 
791.20 	0.0058640 	20974 
791.70 	0.0058640 	20974 
792.20 	0.0058640 	21140 
792.70 	0.0058640 	21140 
793.20 	0.0058640 	20974 
793.70 	0.0058640 	21140 
794.20 	0.0058640 	21140 
794.70 	0.0058640 	21140 
795.20 	0.0058640 	21140 
795.70 	0.0058640 	21140 
796.20 	0.0058640 	21140 
796.70 	0.0058640 	21140 
797.20 	0.0058640 	21140 
797.70 	0.0058640 	21140 
798.20 	0.0058640 	20974 
798.70 	0.0058640 	21140 
799.20 	0.0058640 	21140 
799.70 	0.0058640 	21140 
800.20 	0.0058640 	21140 
800.70 	0.0058640 	20974 
801.20 	0.0058640 	21140 
801.70 	0.0058640 	21140 
802.20 	0.0058640 	21140 
802.70 	0.0058640 	21140 
803.20 	0.0058640 	21140 
803.70 	0.0058640 	21140 
804.20 	0.0058640 	21140 
804.70 	0.0058640 	21140 
805.20 	0.0058640 	21140 
805.70 	0.0058640 	21140 
806.20 	0.0058640 	21140 
806.70 	0.0058640 	21140 
807.20 	0.0058640 	21140 
807.70 	0.0058640 	21140 
808.20 	0.0058640 	21140 
808.70 	0.0058640 	20974 
809.20 	0.0058640 	21140 
809.70 	0.0058640 	21140 
810.20 	0.0058640 	21140 
810.70 	0.0058640 	21140 
811.20 	0.0058640 	21306 
811.70 	0.0058640 	20974 
812.20 	0.0058640 	21140 
812.70 	0.0058640 	21140 
813.20 	0.0058640 	21140 
813.70 	0.0058640 	21140 
814.20 	0.0058640 	21140 
814.70 	0.0058640 	21140 
815.20 	0.0058640 	21140 
815.70 	0.0058640 	21140 
816.20 	0.0058640 	21140 
816.70 	0.0058640 	21140 
817.20 	0.0058640 	21140 
817.70 	0.0058640 	21140 
818.20 	0.0058640 	21140 
818.70 	0.0058640 	21140 
819.20 	0.0058640 	21306 
819.70 	0.0058640 	21140 
820.20 	0.0058640 	21140 
820.70 	0.0058640 	21140 
821.20 	0.0058640 	21140 
821.70 	0.0058640 	21140 
822.20 	0.0058640 	21140 
822.70 	0.0058640 	21140 
823.20 	0.0058640 	21140 
823.70 	0.0058640 	21140 
824.20 	0.0058640 	21140 
824.70 	0.0058640 	21140 
825.20 	0.0058640 	21140 
825.70 	0.0058640 	21140 
826.20 	0.0058640 	21140 
826.70 	0.0058640 	21140 
827.20 	0.0058640 	21140 
827.70 	0.0058640 	21140 
828.20 	0.0058640 	21140 
828.70 	0.0058640 	21140 
829.20 	0.0058640 	21140 
829.70 	0.0058640 	20974 
830.20 	0.0058640 	21140 
830.70 	0.0058640 	21140 
831.20 	0.0058640 	21140 
831.70 	0.0058640 	21140 
832.20 	0.0058640 	21140 
832.70 	0.0058640 	21140 
833.20 	0.0058640 	21306 
833.70 	0.0058640 	21140 
834.20 	0.0058640 	21140 
834.70 	0.0058640 	21140 
835.20 	0.0058640 	21140 
835.70 	0.0058640 	21140 
836.20 	0.0058640 	21140 
836.70 	0.0058640 	21140 
837.20 	0.0058640 	20974 
837.70 	0.0058640 	21140 
838.20 	0.0058640 	21140 
838.70 	0.0058640 	21140 
839.20 	0.0058640 	21140 
839.70 	0.0058640 	21140 
840.20 	0.0058640 	21140 
840.70 	0.0058640 	21140 
841.20 	0.0058640 	21140 
841.70 	0.0058640 	21140 
842.20 	0.0058640 	21140 
842.70 	0.0058640 	20974 
843.20 	0.0058640 	21140 
843.70 	0.0058640 	21306 
844.20 	0.0058640 	21140 
844.70 	0.0058640 	20974 
845.20 	0.0058640 	21140 
845.70 	0.0058640 	21140 
846.20 	0.0058640 	21306 
846.70 	0.0058640 	21306 
847.20 	0.0058640 	21140 
847.70 	0.0058640 	21140 
848.20 	0.0058640 	21140 
848.70 	0.0058640 	21306 
849.20 	0.0058640 	21140 
849.70 	0.0058640 	21140 
850.20 	0.0058640 	21140 
850.70 	0.0058640 	21140 
851.20 	0.0058640 	21140 
851.70 	0.0058640 	21306 
852.20 	0.0058640 	21140 
852.70 	0.0058640 	21140 
853.20 	0.0058640 	21140 
853.70 	0.0058640 	21140 
854.20 	0.0058640 	21140 
854.70 	0.0058640 	21140 
855.20 	0.0058640 	20974 
855.70 	0.0058640 	21140 
856.20 	0.0058640 	21140 
856.70 	0.0058640 	21306 
857.20 	0.0058640 	20974 
857.70 	0.0058640 	21140 
858.20 	0.0058640 	21140 
858.70 	0.0058640 	21306 
859.20 	0.0058640 	21140 
859.70 	0.0058640 	21140 
860.20 	0.0058640 	21140 
860.70 	0.0058640 	21140 
861.20 	0.0058640 	21306 
861.70 	0.0058640 	21140 
862.20 	0.0058640 	21140 
862.70 	0.0058640 	21140 
863.20 	0.0058640 	21140 
863.70 	0.0058640 	21140 
864.20 	0.0058640 	21306 
864.70 	0.0058640 	20974 
865.20 	0.0058640 	20974 
865.70 	0.0058640 	21140 
866.20 	0.0058640 	21306 
866.70 	0.0058640 	21140 
867.20 	0.0058640 	20974 
867.70 	0.0058640 	21140 
868.20 	0.0058640 	21140 
868.70 	0.0058640 	21140 
869.20 	0.0058640 	21140 
869.70 	0.0058640 	21306 
870.20 	0.0058640 	21140 
870.70 	0.0058640 	21140 
871.20 	0.0058640 	21140 
871.70 	0.0058640 	21140 
872.20 	0.0058640 	21140 
872.70 	0.0058640 	21140 
873.20 	0.0058640 	21140 
873.70 	0.0058640 	21140 
874.20 	0.0058640 	21140 
874.70 	0.0058640 	21140 
875.20 	0.0058640 	21306 
875.70 	0.0058640 	21140 
876.20 	0.0058640 	20974 
876.70 	0.0058640 	21140 
877.20 	0.0058640 	21140 
877.70 	0.0058640 	21306 
878.20 	0.0058640 	20974 
878.70 	0.0058640 	21140 
879.20 	0.0058640 	21140 
879.70 	0.0058640 	21140 
880.20 	0.0058640 	21140 
880.70 	0.0058640 	21140 
881.20 	0.0058640 	20974 
881.70 	0.0058640 	20974 
882.20 	0.0058640 	20974 
882.70 	0.0058640 	21140 
883.20 	0.0058640 	21140 
883.70 	0.0058640 	21140 
884.20 	0.0058640 	21140 
884.70 	0.0058640 	21140 
885.20 	0.0058640 	21140 
885.70 	0.0058640 	21140 
886.20 	0.0058640 	21306 
886.70 	0.0058640 	21140 
887.20 	0.0058640 	20974 
887.70 	0.0058640 	21140 
888.20 	0.0058640 	21306 
888.70 	0.0058640 	21140 
889.20 	0.0058640 	21306 
889.70 	0.0058640 	21140 
890.20 	0.0058640 	21140 
890.70 	0.0058640 	21140 
891.20 	0.0058640 	21306 
891.70 	0.0058640 	21140 
892.20 	0.0058640 	20974 
892.70 	0.0058640 	21140 
893.20 	0.0058640 	21140 
893.70 	0.0058640 	21140 
894.20 	0.0058640 	21140 
894.70 	0.0058640 	21140 
895.20 	0.0058640 	21140 
895.70 	0.0058640 	21140 
896.20 	0.0058640 	21140 
896.70 	0.0058640 	21140 
897.20 	0.0058640 	21140 
897.70 	0.0058640 	21140 
898.20 	0.0058640 	21140 
898.70 	0.0058640 	21140 
899.20 	0.0058640 	21306 
899.70 	0.0058640 	21140 
900.20 	0.0058640 	21140 
900.70 	0.0058640 	21140 
901.20 	0.0058640 	21140 
901.70 	0.0058640 	21306 
902.20 	0.0058640 	21140 
902.70 	0.0058640 	20974 
903.20 	0.0058640 	21140 
903.70 	0.0058640 	21140 
904.20 	0.0058640 	21306 
904.70 	0.0058640 	21140 
905.20 	0.0058640 	21140 
905.70 	0.0058640 	21140 
906.20 	0.0058640 	21140 
906.70 	0.0058640 	21140 
907.20 	0.0058640 	21140 
907.70 	0.0058640 	21306 
908.20 	0.0058640 	21140 
908.70 	0.0058640 	21140 
909.20 	0.0058640 	21140 
909.70 	0.0058640 	21140 
910.20 	0.0058640 	21306 
910.70 	0.0058640 	21140 
911.20 	0.0058640 	20974 
911.70 	0.0058640 	21140 
912.20 	0.0058640 	21140 
912.70 	0.0058640 	21140 
913.20 	0.0058640 	21140 
913.70 	0.0058640 	20974 
914.20 	0.0058640 	20974 
914.70 	0.0058640 	21140 
915.20 	0.0058640 	21140 
915.70 	0.0058640 	21140 
916.20 	0.0058640 	21140 
916.70 	0.0058640 	21140 
917.20 	0.0058640 	21140 
917.70 	0.0058640 	21140 
918.20 	0.0058640 	21140 
918.70 	0.0058640 	21140 
919.20 	0.0058640 	21140 
919.70 	0.0058640 	21140 
920.20 	0.0058640 	21140 
920.70 	0.0058640 	21140 
921.20 	0.0058640 	21140 
921.70 	0.0058640 	21140 
922.20 	0.0058640 	21140 
922.70 	0.0058640 	21140 
923.20 	0.0058640 	21140 
923.70 	0.0058640 	21140 
924.20 	0.0058640 	21140 
924.70 	0.0058640 	21140 
925.20 	0.0058640 	21140 
925.70 	0.0058640 	21140 
926.20 	0.0058640 	21140 
926.70 	0.0058640 	21140 
927.20 	0.0058640 	21140 
927.70 	0.0058640 	21140 
928.20 	0.0058640 	21140 
928.70 	0.0058640 	21140 
929.20 	0.0058640 	20974 
929.70 	0.0058640 	21140 
930.20 	0.0058640 	21140 
930.70 	0.0058640 	21140 
931.20 	0.0058640 	21140 
931.70 	0.0058640 	21140 
932.20 	0.0058640 	21140 
932.65 	0.0058640 	21806 
933.15 	0.0058640 	22139 
933.65 	0.0058640 	22638 
934.15 	0.0058640 	23137 
934.65 	0.0058640 	23637 
935.15 	0.0058640 	24136 
935.65 	0.0058640 	24636 
936.15 	0.0058640 	25135 
936.60 	0.0058640 	25801 
937.10 	0.0058640 	26300 
937.60 	0.0058640 	26800 
938.10 	0.0058640 	27132 
938.48 	0.0058640 	27798 
938.98 	0.0058640 	28131 
939.48 	0.0058640 	28464 
939.92 	0.0058640 	29130 
940.42 	0.0058640 	29463 
940.88 	0.0058640 	30129 
941.38 	0.0058640 	30628 
941.88 	0.0058640 	30961 
942.37 	0.0058640 	31627 
942.87 	0.0058640 	32126 
943.37 	0.0058640 	32459 
943.85 	0.0058640 	33125 
944.35 	0.0058640 	33458 
944.85 	0.0058640 	34124 
945.35 	0.0058640 	34457 
945.78 	0.0058640 	35122 
946.18 	0.0058640 	35788 
946.67 	0.0058640 	36454 
947.17 	0.0058640 	36953 
947.67 	0.0058640 	37619 
948.17 	0.0058640 	37952 
948.67 	0.0058640 	38618 
949.17 	0.0058640 	39117 
949.67 	0.0058640 	39617 
950.17 	0.0058640 	40116 
950.63 	0.0058640 	40782 
951.13 	0.0058640 	41281 
951.63 	0.0058640 	41781 
952.13 	0.0058640 	42280 
952.63 	0.0058640 	42779 
953.12 	0.0058640 	43445 
953.62 	0.0058640 	43945 
954.12 	0.0058640 	44444 
954.62 	0.0058640 	44943 
955.12 	0.0058640 	45443 
955.62 	0.0058640 	45942 
956.10 	0.0058640 	46608 
956.60 	0.0058640 	47107 
957.10 	0.0058640 	47607 
957.60 	0.0058640 	48106 
958.10 	0.0058640 	48605 
958.60 	0.0058640 	49105 
959.10 	0.0058640 	49604 
959.57 	0.0058640 	50270 
960.07 	0.0058640 	50769 
960.57 	0.0058640 	51269 
961.07 	0.0058640 	51768 
961.55 	0.0058640 	52434 
962.05 	0.0058640 	52767 
962.53 	0.0058640 	53433 
963.03 	0.0058640 	53766 
963.45 	0.0058640 	54431 
963.95 	0.0058640 	54931 
964.45 	0.0058640 	55430 
964.95 	0.0058640 	55929 
965.45 	0.0058640 	56429 
965.95 	0.0058640 	56928 
966.43 	0.0058640 	57594 
966.93 	0.0058640 	58093 
967.43 	0.0058640 	58593 
967.93 	0.0058640 	59092 
968.43 	0.0058640 	59592 
968.93 	0.0058640 	60257 
969.43 	0.0058640 	60590 
969.87 	0.0058640 	61256 
970.37 	0.0058640 	61589 
970.83 	0.0058640 	62255 
971.33 	0.0058640 	62754 
971.83 	0.0058640 	63254 
972.33 	0.0058640 	63753 
972.82 	0.0058640 	64419 
973.32 	0.0058640 	64918 
973.82 	0.0058640 	65418 
974.32 	0.0058640 	65917 
974.82 	0.0058640 	66250 
975.18 	0.0058640 	66916 
975.68 	0.0058640 	67249 
976.07 	0.0058640 	67914 
976.57 	0.0058640 	68247 
977.07 	0.0058640 	68747 
977.55 	0.0058640 	69412 
978.05 	0.0058640 	69912 
978.55 	0.0058640 	70411 
979.05 	0.0058640 	70911 
979.55 	0.0058640 	71576 
980.05 	0.0058640 	71909 
980.43 	0.0058640 	72575 
980.93 	0.0058640 	72908 
981.40 	0.0058640 	73574 
981.90 	0.0058640 	73907 
982.37 	0.0058640 	74573 
982.87 	0.0058640 	75072 
983.37 	0.0058640 	75571 
983.87 	0.0058640 	76071 
984.37 	0.0058640 	76570 
984.87 	0.0058640 	77069 
985.37 	0.0058640 	77569 
985.82 	0.0058640 	78235 
986.32 	0.0058640 	78734 
986.82 	0.0058640 	79233 
987.32 	0.0058640 	79733 
987.82 	0.0058640 	80232 
988.32 	0.0058640 	80732 
988.72 	0.0058640 	81397 
989.22 	0.0058640 	81730 
989.72 	0.0058640 	82230 
990.22 	0.0058640 	82895 
990.72 	0.0058640 	83395 
991.22 	0.0058640 	83894 
991.72 	0.0058640 	84394 
992.22 	0.0058640 	85059 
992.72 	0.0058640 	85392 
993.17 	0.0058640 	86058 
993.67 	0.0058640 	86558 
994.17 	0.0058640 	86890 
994.62 	0.0058640 	87556 
995.12 	0.0058640 	88056 
995.62 	0.0058640 	88555 
996.12 	0.0058640 	89054 
996.60 	0.0058640 	89720 
997.10 	0.0058640 	90053 
997.53 	0.0058640 	90719 
998.03 	0.0058640 	91218 
998.53 	0.0058640 	91718 
999.03 	0.0058640 	92217 
999.53 	0.0058640 	92716 
1000.0 	0.0058640 	93216 
1000.5 	0.0058640 	93715 
1001.0 	0.0058640 	94381 
1001.5 	0.0058640 	94714 
1002.0 	0.0058640 	95380 
1002.5 	0.0058640 	95879 
1003.0 	0.0058640 	96212 
1003.4 	0.0058640 	96878 
1003.9 	0.0058640 	97377 
1004.4 	0.0058640 	97877 
1004.9 	0.0058640 	98376 
1005.4 	0.0058640 	98875 
1005.8 	0.0058640 	99541 
1006.3 	0.0058640 	100040 
1006.8 	0.0058640 	100370 
1007.3 	0.0058640 	101040 
1007.8 	0.0058640 	101540 
1008.3 	0.0058640 	102040 
1008.8 	0.0058640 	102540 
1009.3 	0.0058640 	103040 
1009.8 	0.0058640 	103540 
1010.2 	0.0058640 	104200 
1010.7 	0.0058640 	104530 
1011.2 	0.0058640 	105200 
1011.7 	0.0058640 	105700 
1012.2 	0.0058640 	106200 
1012.7 	0.0058640 	106700 
1013.2 	0.0058640 	107200 
1013.7 	0.0058640 	107860 
1014.2 	0.0058640 	108200 
1014.7 	0.0058640 	108700 
1015.1 	0.0058640 	109360 
1015.6 	0.0058640 	109700 
1016.1 	0.0058640 	110360 
1016.6 	0.0058640 	110860 
1017.1 	0.0058640 	111360 
1017.6 	0.0058640 	112030 
1018.1 	0.0058640 	112520 
1018.6 	0.0058640 	113020 
1019.1 	0.0058640 	113520 
1019.6 	0.0058640 	114020 
1020.1 	0.0058640 	114520 
1020.6 	0.0058640 	115020 
1021.1 	0.0058640 	115520 
1021.6 	0.0058640 	116190 
1022.1 	0.0058640 	116690 
1022.6 	0.0058640 	117190 
1023.1 	0.0058640 	117680 
1023.6 	0.0058640 	118350 
1024.1 	0.0058640 	118680 
1024.6 	0.0058640 	119350 
1025.1 	0.0058640 	119850 
1025.6 	0.0058640 	120350 
1026.1 	0.0058640 	120850 
1026.6 	0.0058640 	121350 
1027.1 	0.0058640 	122010 
1027.6 	0.0058640 	122510 
1028.1 	0.0058640 	123010 
1028.6 	0.0058640 	123510 
1029.1 	0.0058640 	124180 
1029.6 	0.0058640 	124510 
1030.0 	0.0058640 	125180 
1030.5 	0.0058640 	125670 
1031.0 	0.0058640 	126170 
1031.5 	0.0058640 	126670 
1032.0 	0.0058640 	127170 
1032.5 	0.0058640 	127840 
1033.0 	0.0058640 	128170 
1033.5 	0.0058640 	128840 
1034.0 	0.0058640 	129340 
1034.5 	0.0058640 	129840 
1035.0 	0.0058640 	130340 
1035.5 	0.0058640 	130840 
1036.0 	0.0058640 	131500 
1036.5 	0.0058640 	132000 
1037.0 	0.0058640 	132500 
1037.5 	0.0058640 	133000 
1038.0 	0.0058640 	133660 
1038.5 	0.0058640 	134160 
1039.0 	0.0058640 	134500 
1039.5 	0.0058640 	134160 
1039.9 	0.0058640 	135160 
1040.4 	0.0058640 	136000 
1040.9 	0.0058640 	136490 
1041.4 	0.0058640 	137160 
1041.9 	0.0058640 	137660 
1042.4 	0.0058640 	138160 
1042.9 	0.0058640 	138660 
1043.4 	0.0058640 	139320 
1043.9 	0.0058640 	139820 
1044.4 	0.0058640 	140320 
1044.9 	0.0058640 	140820 
1045.4 	0.0058640 	141320 
1045.9 	0.0058640 	141820 
1046.4 	0.0058640 	142490 
1046.9 	0.0058640 	142990 
1047.4 	0.0058640 	143490 
1047.9 	0.0058640 	143990 
1048.4 	0.0058640 	144480 
1048.9 	0.0058640 	145150 
1049.4 	0.0058640 	145650 
1049.9 	0.0058640 	146150 
1050.4 	0.0058640 	146650 
1050.9 	0.0058640 	147310 
1051.4 	0.0058640 	147650 
1051.9 	0.0058640 	148310 
1052.4 	0.0058640 	148810 
1052.9 	0.0058640 	149480 
1053.4 	0.0058640 	149810 
1053.9 	0.0058640 	150480 
1054.4 	0.0058640 	150980 
1054.9 	0.0058640 	151480 
1055.4 	0.0058640 	151980 
1055.9 	0.0058640 	152470 
1056.4 	0.0058640 	153140 
1056.9 	0.0058640 	153640 
1057.4 	0.0058640 	154140 
1057.9 	0.0058640 	154640 
1058.4 	0.0058640 	155140 
1058.9 	0.0058640 	155640 
1059.4 	0.0058640 	156300 
1059.9 	0.0058640 	156800 
1060.4 	0.0058640 	157470 
1060.9 	0.0058640 	157970 
1061.4 	0.0058640 	158470 
1061.9 	0.0058640 	158970 
1062.4 	0.0058640 	159470 
1062.9 	0.0058640 	159960 
1063.4 	0.0058640 	160460 
1063.9 	0.0058640 	160960 
1064.4 	0.0058640 	161630 
1064.9 	0.0058640 	162130 
1065.4 	0.0058640 	162630 
1065.9 	0.0058640 	163130 
1066.4 	0.0058640 	163630 
1066.9 	0.0058640 	164130 
1067.4 	0.0058640 	164790 
1067.9 	0.0058640 	165290 
1068.4 	0.0058640 	165790 
1068.9 	0.0058640 	166290 
1069.4 	0.0058640 	166960 
1069.9 	0.0058640 	167290 
1070.4 	0.0058640 	167950 
1070.9 	0.0058640 	168450 
1071.4 	0.0058640 	168950 
1071.9 	0.0058640 	169450 
1072.4 	0.0058640 	170120 
1072.9 	0.0058640 	170620 
1073.4 	0.0058640 	171120 
1073.9 	0.0058640 	171620 
1074.4 	0.0058640 	172120 
1074.9 	0.0058640 	172620 
1075.4 	0.0058640 	173280 
1075.9 	0.0058640 	173610 
1076.4 	0.0058640 	174280 
1076.9 	0.0058640 	174780 
1077.4 	0.0058640 	175450 
1077.9 	0.0058640 	175940 
1078.4 	0.0058640 	176440 
1078.9 	0.0058640 	176940 
1079.4 	0.0058640 	177610 
1079.9 	0.0058640 	177940 
1080.4 	0.0058640 	178610 
1080.9 	0.0058640 	179110 
1081.4 	0.0058640 	179610 
1081.9 	0.0058640 	180110 
1082.4 	0.0058640 	180610 
1082.9 	0.0058640 	181270 
1083.4 	0.0058640 	181770 
1083.9 	0.0058640 	182270 
1084.4 	0.0058640 	182770 
1084.9 	0.0058640 	183270 
1085.4 	0.0058640 	183930 
1085.9 	0.0058640 	184270 
1086.4 	0.0058640 	184770 
1086.9 	0.0058640 	185100 
1087.4 	0.0058640 	185930 
1087.9 	0.0058640 	186430 
1088.4 	0.0058640 	186930 
1088.9 	0.0058640 	187600 
1089.4 	0.0058640 	188100 
1089.9 	0.0058640 	188600 
1090.4 	0.0058640 	189090 
1090.9 	0.0058640 	189590 
1091.4 	0.0058640 	190260 
1091.9 	0.0058640 	190760 
1092.4 	0.0058640 	191260 
1092.9 	0.0058640 	191760 
1093.4 	0.0058640 	192420 
1093.9 	0.0058640 	192760 
1094.4 	0.0058640 	193420 
1094.9 	0.0058640 	193920 
1095.4 	0.0058640 	194420 
1095.9 	0.0058640 	194920 
1096.4 	0.0058640 	195590 
1096.9 	0.0058640 	196090 
1097.4 	0.0058640 	196420 
1097.9 	0.0058640 	197080 
1098.4 	0.0058640 	197750 
1098.9 	0.0058640 	198080 
1099.4 	0.0058640 	198750 
1099.9 	0.0058640 	199080 
1100.4 	0.0058640 	199750 
1100.9 	0.0058640 	200080 
1101.4 	0.0058640 	200910 
1101.9 	0.0058640 	201410 
1102.4 	0.0058640 	201910 
1102.9 	0.0058640 	202410 
1103.4 	0.0058640 	202910 
1103.9 	0.0058640 	203410 
1104.4 	0.0058640 	204080 
1104.9 	0.0058640 	204580 
1105.4 	0.0058640 	205070 
1105.9 	0.0058640 	205570 
1106.4 	0.0058640 	206070 
1106.9 	0.0058640 	206570 
1107.4 	0.0058640 	207240 
1107.9 	0.0058640 	207740 
1108.4 	0.0058640 	208240 
1108.9 	0.0058640 	208740 
1109.4 	0.0058640 	209400 
1109.9 	0.0058640 	209740 
1110.4 	0.0058640 	210400 
1110.9 	0.0058640 	210900 
1111.4 	0.0058640 	211400 
1111.4 	0.0058640 	210070 
1111.9 	0.0058640 	211400 
1112.4 	0.0058640 	212230 
1112.9 	0.0058640 	212900 
1113.4 	0.0058640 	213560 
1113.9 	0.0058640 	213900 
1114.4 	0.0058640 	214560 
1114.9 	0.0058640 	215060 
1115.4 	0.0058640 	215560 
1115.9 	0.0058640 	216230 
1116.4 	0.0058640 	216560 
1116.9 	0.0058640 	217060 
1117.4 	0.0058640 	217730 
1117.9 	0.0058640 	218220 
1118.4 	0.0058640 	218720 
1118.9 	0.0058640 	219220 
1119.4 	0.0058640 	219890 
1119.9 	0.0058640 	220390 
1120.4 	0.0058640 	220720 
1120.9 	0.0058640 	221390 
1121.0 	0.0058640 	219720 
1121.0 	0.0058640 	216060 
1121.1 	0.0058640 	189260 
1121.1 	0.0058640 	133170 
