Tempo(s)	Deformação(mm)	Força(N)
0.016667 	0.00000 	332.91 
0.51667 	0.00000 	332.91 
1.0167 	0.00000 	499.37 
1.5167 	0.00010662 	665.83 
2.0167 	0.00021324 	1165.2 
2.5167 	0.00031985 	1498.1 
3.0167 	0.00042647 	1498.1 
3.4000 	0.00053309 	2163.9 
3.9000 	0.00074633 	2663.3 
4.3167 	0.00095956 	3329.1 
4.8167 	0.0012794 	3995.0 
5.3167 	0.0014927 	4494.3 
5.6000 	0.0017059 	5160.2 
6.1000 	0.0019191 	5659.5 
6.5500 	0.0021324 	6325.4 
7.0333 	0.0024522 	6991.2 
7.5333 	0.0025588 	7324.1 
7.9667 	0.0027721 	7989.9 
8.4667 	0.0029853 	8322.8 
8.8833 	0.0031985 	8988.7 
9.3833 	0.0033052 	9488.0 
9.8833 	0.0035184 	9987.4 
10.383 	0.0037316 	10487 
10.883 	0.0039449 	10986 
11.383 	0.0041581 	11319 
11.883 	0.0042647 	11985 
12.383 	0.0044780 	12318 
12.883 	0.0045846 	12651 
13.367 	0.0046912 	13317 
13.850 	0.0049044 	13982 
14.300 	0.0051177 	14648 
14.800 	0.0053309 	15148 
15.283 	0.0055441 	15813 
15.783 	0.0057574 	16313 
16.283 	0.0059706 	16812 
16.783 	0.0060772 	17312 
17.283 	0.0062905 	17977 
17.783 	0.0065037 	18477 
18.283 	0.0067169 	18976 
18.783 	0.0068236 	19475 
19.283 	0.0069302 	19975 
19.783 	0.0071434 	20308 
20.200 	0.0073566 	20974 
20.700 	0.0075699 	21473 
21.200 	0.0077831 	21972 
21.683 	0.0078897 	22638 
22.183 	0.0079964 	22805 
22.683 	0.0081030 	22971 
23.183 	0.0081030 	23137 
23.683 	0.0081030 	22971 
24.183 	0.0082096 	23137 
24.683 	0.0081030 	23137 
25.183 	0.0081030 	23137 
25.683 	0.0082096 	23137 
26.183 	0.0082096 	23137 
26.683 	0.0082096 	23137 
27.183 	0.0082096 	23137 
27.683 	0.0082096 	23137 
28.183 	0.0082096 	23137 
28.683 	0.0083162 	23304 
29.183 	0.0083162 	23304 
29.683 	0.0082096 	23137 
30.183 	0.0082096 	23137 
30.683 	0.0082096 	23137 
31.183 	0.0083162 	23137 
31.683 	0.0083162 	23137 
32.183 	0.0083162 	23137 
32.683 	0.0083162 	23137 
33.183 	0.0083162 	23137 
33.683 	0.0083162 	23137 
34.183 	0.0083162 	23137 
34.683 	0.0083162 	23137 
35.183 	0.0083162 	23137 
35.683 	0.0083162 	23137 
36.183 	0.0083162 	23137 
36.683 	0.0083162 	23137 
37.183 	0.0083162 	23137 
37.683 	0.0083162 	23137 
38.183 	0.0083162 	23137 
38.683 	0.0083162 	23137 
39.183 	0.0083162 	23137 
39.683 	0.0083162 	23137 
40.183 	0.0083162 	23137 
40.683 	0.0083162 	23137 
41.183 	0.0083162 	23137 
41.683 	0.0083162 	22971 
42.183 	0.0083162 	23137 
42.683 	0.0083162 	23137 
43.183 	0.0083162 	23137 
43.683 	0.0083162 	23304 
44.183 	0.0083162 	23304 
44.683 	0.0083162 	23137 
45.183 	0.0083162 	22971 
45.683 	0.0083162 	22971 
46.183 	0.0083162 	23137 
46.683 	0.0083162 	23137 
47.183 	0.0083162 	23304 
47.683 	0.0083162 	23137 
48.183 	0.0083162 	23137 
48.683 	0.0083162 	23137 
49.183 	0.0082096 	23137 
49.683 	0.0082096 	23137 
50.183 	0.0083162 	23137 
50.683 	0.0083162 	23137 
51.183 	0.0083162 	23137 
51.683 	0.0083162 	23137 
52.183 	0.0083162 	23137 
52.683 	0.0083162 	23137 
53.183 	0.0083162 	23137 
53.683 	0.0083162 	23137 
54.183 	0.0083162 	23137 
54.683 	0.0083162 	23137 
55.183 	0.0083162 	23137 
55.683 	0.0083162 	23137 
56.183 	0.0083162 	23137 
56.683 	0.0083162 	23137 
57.183 	0.0083162 	23137 
57.683 	0.0084228 	23137 
58.183 	0.0083162 	23137 
58.683 	0.0084228 	23137 
59.183 	0.0083162 	23137 
59.683 	0.0083162 	23137 
60.183 	0.0083162 	23137 
60.683 	0.0084228 	23137 
61.183 	0.0084228 	23137 
61.683 	0.0084228 	23137 
62.183 	0.0084228 	23137 
62.683 	0.0084228 	23137 
63.183 	0.0084228 	23137 
63.683 	0.0084228 	23137 
64.183 	0.0083162 	23137 
64.683 	0.0083162 	23137 
65.183 	0.0084228 	23137 
65.683 	0.0084228 	23304 
66.183 	0.0084228 	23137 
66.683 	0.0084228 	23137 
67.183 	0.0084228 	23137 
67.683 	0.0084228 	23137 
68.183 	0.0083162 	23137 
68.683 	0.0084228 	23137 
69.183 	0.0083162 	23137 
69.683 	0.0084228 	23137 
70.183 	0.0084228 	23137 
70.683 	0.0084228 	23137 
71.183 	0.0084228 	23137 
71.683 	0.0084228 	23137 
72.183 	0.0083162 	23137 
72.683 	0.0083162 	23137 
73.183 	0.0083162 	22971 
73.683 	0.0084228 	23137 
74.183 	0.0083162 	23137 
74.683 	0.0083162 	23137 
75.183 	0.0083162 	23137 
75.683 	0.0083162 	22971 
76.183 	0.0083162 	23137 
76.683 	0.0083162 	23304 
77.183 	0.0083162 	23137 
77.683 	0.0084228 	23137 
78.183 	0.0083162 	23137 
78.683 	0.0083162 	23137 
79.183 	0.0083162 	23137 
79.683 	0.0083162 	23137 
80.183 	0.0084228 	23137 
80.683 	0.0083162 	23137 
81.183 	0.0084228 	23137 
81.683 	0.0083162 	23137 
82.183 	0.0084228 	23137 
82.683 	0.0083162 	22805 
83.183 	0.0082096 	22305 
83.683 	0.0079964 	21806 
84.100 	0.0077831 	21140 
84.600 	0.0076765 	20641 
85.100 	0.0075699 	20141 
85.600 	0.0073566 	19642 
86.100 	0.0073566 	19143 
86.600 	0.0071434 	18477 
87.100 	0.0069302 	17977 
87.600 	0.0068236 	17478 
88.100 	0.0067169 	16979 
88.600 	0.0065037 	16479 
89.100 	0.0063971 	15980 
89.600 	0.0062905 	15647 
90.100 	0.0061839 	15148 
90.600 	0.0059706 	14648 
91.100 	0.0059706 	14315 
91.600 	0.0058640 	13982 
92.033 	0.0056508 	13317 
92.417 	0.0054375 	12651 
92.917 	0.0053309 	12151 
93.400 	0.0051177 	11486 
93.900 	0.0049044 	10986 
94.400 	0.0047978 	10487 
94.900 	0.0046912 	9987.4 
95.400 	0.0044780 	9488.0 
95.900 	0.0042647 	8988.7 
96.400 	0.0041581 	8322.8 
96.900 	0.0039449 	7989.9 
97.367 	0.0038383 	7324.1 
97.867 	0.0036250 	6991.2 
98.300 	0.0035184 	6325.4 
98.800 	0.0034118 	5826.0 
99.300 	0.0031985 	5326.6 
99.800 	0.0029853 	4993.7 
100.23 	0.0028787 	4327.9 
100.73 	0.0027721 	4161.4 
101.02 	0.0026655 	3495.6 
101.52 	0.0024522 	3162.7 
102.00 	0.0023456 	2496.9 
102.50 	0.0022390 	2163.9 
103.00 	0.0021324 	1831.0 
103.50 	0.0020257 	1664.6 
104.00 	0.0020257 	1498.1 
104.50 	0.0019191 	1498.1 
105.00 	0.0019191 	1331.7 
105.50 	0.0019191 	1331.7 
106.00 	0.0018125 	1331.7 
106.50 	0.0019191 	1331.7 
107.00 	0.0018125 	1165.2 
107.50 	0.0018125 	1165.2 
108.00 	0.0018125 	1331.7 
108.50 	0.0018125 	1165.2 
109.00 	0.0018125 	1165.2 
109.50 	0.0017059 	1165.2 
110.00 	0.0018125 	998.74 
110.50 	0.0018125 	1331.7 
111.00 	0.0018125 	1165.2 
111.50 	0.0018125 	1165.2 
112.00 	0.0018125 	1165.2 
112.50 	0.0018125 	998.74 
113.00 	0.0018125 	1165.2 
113.50 	0.0018125 	1165.2 
114.00 	0.0018125 	1165.2 
114.50 	0.0018125 	1165.2 
115.00 	0.0018125 	1165.2 
115.50 	0.0018125 	1165.2 
116.00 	0.0018125 	1165.2 
116.50 	0.0018125 	1331.7 
117.00 	0.0018125 	1165.2 
117.50 	0.0018125 	1165.2 
118.00 	0.0018125 	1165.2 
118.50 	0.0018125 	1165.2 
119.00 	0.0018125 	1165.2 
119.50 	0.0018125 	1331.7 
120.00 	0.0018125 	1165.2 
120.50 	0.0018125 	1165.2 
121.00 	0.0018125 	998.74 
121.50 	0.0018125 	1165.2 
122.00 	0.0018125 	1165.2 
122.50 	0.0018125 	1165.2 
123.00 	0.0018125 	1165.2 
123.50 	0.0018125 	1165.2 
124.00 	0.0018125 	1165.2 
124.50 	0.0018125 	1165.2 
125.00 	0.0018125 	1165.2 
125.50 	0.0018125 	1331.7 
126.00 	0.0018125 	1165.2 
126.50 	0.0018125 	998.74 
127.00 	0.0018125 	1165.2 
127.50 	0.0018125 	1165.2 
128.00 	0.0018125 	1165.2 
128.50 	0.0018125 	1331.7 
129.00 	0.0018125 	1165.2 
129.50 	0.0019191 	1165.2 
130.00 	0.0019191 	998.74 
130.50 	0.0018125 	998.74 
131.00 	0.0019191 	1165.2 
131.50 	0.0018125 	1165.2 
132.00 	0.0018125 	1165.2 
132.50 	0.0019191 	1165.2 
133.00 	0.0018125 	1165.2 
133.50 	0.0018125 	1165.2 
134.00 	0.0018125 	998.74 
134.50 	0.0018125 	998.74 
135.00 	0.0018125 	998.74 
135.50 	0.0018125 	1165.2 
136.00 	0.0018125 	1165.2 
136.50 	0.0018125 	1165.2 
137.00 	0.0018125 	1165.2 
137.50 	0.0018125 	1165.2 
138.00 	0.0018125 	1331.7 
138.50 	0.0018125 	1165.2 
139.00 	0.0018125 	998.74 
139.50 	0.0018125 	998.74 
140.00 	0.0018125 	1165.2 
140.50 	0.0018125 	1165.2 
141.00 	0.0018125 	1165.2 
141.50 	0.0018125 	1165.2 
142.00 	0.0019191 	1165.2 
142.50 	0.0018125 	1165.2 
143.00 	0.0018125 	1165.2 
143.50 	0.0018125 	1165.2 
144.00 	0.0019191 	1165.2 
144.50 	0.0018125 	1165.2 
145.00 	0.0018125 	1165.2 
145.50 	0.0018125 	1165.2 
146.00 	0.0019191 	1165.2 
146.50 	0.0019191 	1165.2 
147.00 	0.0018125 	1165.2 
147.50 	0.0018125 	1165.2 
148.00 	0.0019191 	1331.7 
148.50 	0.0018125 	1165.2 
149.00 	0.0019191 	1331.7 
149.50 	0.0018125 	998.74 
150.00 	0.0018125 	1165.2 
150.50 	0.0018125 	998.74 
151.00 	0.0018125 	1165.2 
151.50 	0.0019191 	1331.7 
152.00 	0.0018125 	1165.2 
152.50 	0.0018125 	1165.2 
153.00 	0.0018125 	998.74 
153.50 	0.0019191 	1165.2 
154.00 	0.0018125 	1165.2 
154.50 	0.0019191 	1331.7 
155.00 	0.0019191 	1165.2 
155.50 	0.0018125 	1165.2 
156.00 	0.0018125 	1165.2 
156.50 	0.0019191 	998.74 
157.00 	0.0019191 	1165.2 
157.50 	0.0018125 	1165.2 
158.00 	0.0018125 	1331.7 
158.50 	0.0018125 	1165.2 
159.00 	0.0018125 	998.74 
159.50 	0.0019191 	1165.2 
160.00 	0.0019191 	1165.2 
160.50 	0.0018125 	1331.7 
161.00 	0.0018125 	1165.2 
161.50 	0.0018125 	1165.2 
162.00 	0.0018125 	998.74 
162.50 	0.0018125 	1165.2 
163.00 	0.0018125 	1331.7 
163.50 	0.0018125 	1331.7 
164.00 	0.0018125 	1331.7 
164.50 	0.0018125 	1165.2 
165.00 	0.0019191 	998.74 
165.50 	0.0019191 	1165.2 
166.00 	0.0019191 	1498.1 
166.50 	0.0020257 	1831.0 
166.83 	0.0021324 	2496.9 
167.33 	0.0023456 	2829.8 
167.83 	0.0024522 	3329.1 
168.27 	0.0026655 	3995.0 
168.77 	0.0027721 	4327.9 
169.17 	0.0029853 	4993.7 
169.67 	0.0030919 	5326.6 
170.03 	0.0031985 	5992.4 
170.53 	0.0034118 	6325.4 
170.97 	0.0036250 	6991.2 
171.47 	0.0038383 	7490.6 
171.97 	0.0039449 	7823.5 
172.30 	0.0040515 	8489.3 
172.80 	0.0042647 	8822.2 
173.30 	0.0043713 	9488.0 
173.80 	0.0045846 	9987.4 
174.30 	0.0046912 	10487 
174.80 	0.0049044 	10820 
175.30 	0.0050111 	11319 
175.80 	0.0052243 	11818 
176.30 	0.0053309 	12151 
176.78 	0.0054375 	12817 
177.28 	0.0056508 	13150 
177.75 	0.0057574 	13816 
178.13 	0.0059706 	14482 
178.63 	0.0060772 	14981 
179.12 	0.0061839 	15647 
179.62 	0.0065037 	16146 
180.12 	0.0066103 	16646 
180.62 	0.0067169 	17145 
181.12 	0.0069302 	17811 
181.62 	0.0070368 	18310 
182.12 	0.0072500 	18810 
182.62 	0.0073566 	19309 
183.12 	0.0074633 	19808 
183.62 	0.0076765 	20308 
184.12 	0.0078897 	20807 
184.62 	0.0079964 	21306 
185.12 	0.0082096 	21972 
185.62 	0.0084228 	22472 
186.12 	0.0084228 	22805 
186.62 	0.0085294 	22971 
187.12 	0.0086361 	23137 
187.62 	0.0086361 	23137 
188.12 	0.0085294 	23304 
188.62 	0.0086361 	23137 
189.12 	0.0086361 	23137 
189.62 	0.0086361 	22971 
190.12 	0.0086361 	23137 
190.62 	0.0086361 	23304 
191.12 	0.0086361 	23137 
191.62 	0.0086361 	23137 
192.12 	0.0086361 	23137 
192.62 	0.0086361 	23137 
193.12 	0.0086361 	23137 
193.62 	0.0086361 	23137 
194.12 	0.0087427 	22971 
194.62 	0.0086361 	22971 
195.12 	0.0087427 	23137 
195.62 	0.0087427 	23137 
196.12 	0.0087427 	23137 
196.62 	0.0086361 	23137 
197.12 	0.0087427 	23137 
197.62 	0.0087427 	23137 
198.12 	0.0086361 	23137 
198.62 	0.0087427 	23137 
199.12 	0.0087427 	23137 
199.62 	0.0087427 	23137 
200.12 	0.0086361 	23137 
200.62 	0.0087427 	23137 
201.12 	0.0087427 	23137 
201.62 	0.0086361 	23137 
202.12 	0.0086361 	23137 
202.62 	0.0086361 	23137 
203.12 	0.0087427 	23137 
203.62 	0.0087427 	23304 
204.12 	0.0087427 	23137 
204.62 	0.0087427 	23137 
205.12 	0.0086361 	23137 
205.62 	0.0086361 	23137 
206.12 	0.0086361 	23137 
206.62 	0.0086361 	23137 
207.12 	0.0087427 	23137 
207.62 	0.0087427 	23137 
208.12 	0.0086361 	23137 
208.62 	0.0087427 	23137 
209.12 	0.0086361 	23137 
209.62 	0.0087427 	23137 
210.12 	0.0087427 	23137 
210.62 	0.0087427 	23137 
211.12 	0.0087427 	23137 
211.62 	0.0086361 	23137 
212.12 	0.0087427 	23137 
212.62 	0.0087427 	23137 
213.12 	0.0087427 	23137 
213.62 	0.0087427 	23137 
214.12 	0.0087427 	23137 
214.62 	0.0087427 	23137 
215.12 	0.0087427 	23137 
215.62 	0.0087427 	23137 
216.12 	0.0087427 	23137 
216.62 	0.0087427 	23137 
217.12 	0.0087427 	23137 
217.62 	0.0087427 	23137 
218.12 	0.0087427 	23137 
218.62 	0.0087427 	23137 
219.12 	0.0087427 	23137 
219.62 	0.0087427 	23137 
220.12 	0.0087427 	23137 
220.62 	0.0087427 	23137 
221.12 	0.0086361 	23137 
221.62 	0.0087427 	23137 
222.12 	0.0087427 	23137 
222.62 	0.0087427 	23137 
223.12 	0.0087427 	23137 
223.62 	0.0087427 	23137 
224.12 	0.0087427 	23137 
224.62 	0.0087427 	23137 
225.12 	0.0086361 	23137 
225.62 	0.0087427 	23304 
226.12 	0.0087427 	23304 
226.62 	0.0086361 	23137 
227.12 	0.0086361 	23137 
227.62 	0.0086361 	23137 
228.12 	0.0087427 	23137 
228.62 	0.0087427 	23137 
229.12 	0.0087427 	23304 
229.62 	0.0087427 	23137 
230.12 	0.0087427 	23137 
230.62 	0.0087427 	23137 
231.12 	0.0087427 	23137 
231.62 	0.0087427 	23137 
232.12 	0.0087427 	23137 
232.62 	0.0087427 	23137 
233.12 	0.0087427 	23137 
233.62 	0.0087427 	22971 
234.12 	0.0086361 	23137 
234.62 	0.0086361 	23137 
235.12 	0.0087427 	23137 
235.62 	0.0087427 	23137 
236.12 	0.0087427 	23137 
236.62 	0.0086361 	23137 
237.12 	0.0086361 	22971 
237.62 	0.0087427 	23137 
238.12 	0.0086361 	23137 
238.62 	0.0087427 	22971 
239.12 	0.0087427 	23137 
239.62 	0.0087427 	23304 
240.12 	0.0087427 	23304 
240.62 	0.0087427 	23137 
241.12 	0.0087427 	23137 
241.62 	0.0087427 	23137 
242.12 	0.0087427 	23137 
242.62 	0.0087427 	23137 
243.12 	0.0087427 	23137 
243.62 	0.0087427 	23137 
244.12 	0.0087427 	23137 
244.62 	0.0087427 	23137 
245.12 	0.0087427 	23137 
245.62 	0.0087427 	23137 
246.12 	0.0087427 	23137 
246.62 	0.0087427 	22971 
247.12 	0.0086361 	22638 
247.58 	0.0085294 	21972 
248.08 	0.0083162 	21473 
248.55 	0.0082096 	20807 
249.05 	0.0081030 	20308 
249.55 	0.0078897 	19808 
250.05 	0.0077831 	19309 
250.55 	0.0075699 	18643 
251.05 	0.0074633 	18310 
251.55 	0.0073566 	17811 
252.03 	0.0071434 	17145 
252.53 	0.0070368 	16812 
253.03 	0.0069302 	16146 
253.53 	0.0067169 	15813 
254.03 	0.0066103 	15480 
254.53 	0.0065037 	14815 
255.03 	0.0063971 	14482 
255.53 	0.0062905 	13982 
256.03 	0.0061839 	13649 
256.38 	0.0059706 	12984 
256.85 	0.0057574 	12318 
257.35 	0.0055441 	11818 
257.85 	0.0053309 	11153 
258.35 	0.0052243 	10820 
258.83 	0.0051177 	10154 
259.33 	0.0049044 	9820.9 
259.80 	0.0047978 	9155.1 
260.30 	0.0045846 	8655.8 
260.80 	0.0044780 	8156.4 
261.30 	0.0043713 	7657.0 
261.78 	0.0041581 	6991.2 
262.28 	0.0040515 	6658.3 
262.68 	0.0038383 	5992.4 
263.18 	0.0037316 	5659.5 
263.62 	0.0036250 	4993.7 
264.12 	0.0035184 	4660.8 
264.62 	0.0033052 	4327.9 
265.08 	0.0030919 	3662.0 
265.58 	0.0029853 	3329.1 
265.90 	0.0028787 	2663.3 
266.40 	0.0026655 	2496.9 
266.87 	0.0025588 	1831.0 
267.37 	0.0024522 	1664.6 
267.87 	0.0023456 	1498.1 
268.37 	0.0023456 	1498.1 
268.87 	0.0023456 	1331.7 
269.37 	0.0023456 	1331.7 
269.87 	0.0022390 	1331.7 
270.37 	0.0022390 	1165.2 
270.87 	0.0022390 	1331.7 
271.37 	0.0021324 	1331.7 
271.87 	0.0021324 	1165.2 
272.37 	0.0021324 	1165.2 
272.87 	0.0021324 	1165.2 
273.37 	0.0021324 	1165.2 
273.87 	0.0021324 	1165.2 
274.37 	0.0021324 	1165.2 
274.87 	0.0021324 	1165.2 
275.37 	0.0021324 	1165.2 
275.87 	0.0021324 	1165.2 
276.37 	0.0021324 	1165.2 
276.87 	0.0021324 	1165.2 
277.37 	0.0021324 	1331.7 
277.87 	0.0021324 	1165.2 
278.37 	0.0020257 	998.74 
278.87 	0.0020257 	1165.2 
279.37 	0.0021324 	1331.7 
279.87 	0.0020257 	1165.2 
280.37 	0.0020257 	1165.2 
280.87 	0.0020257 	1165.2 
281.37 	0.0020257 	1165.2 
281.87 	0.0020257 	1165.2 
282.37 	0.0020257 	1165.2 
282.87 	0.0020257 	1165.2 
283.37 	0.0020257 	1331.7 
283.87 	0.0020257 	1165.2 
284.37 	0.0020257 	998.74 
284.87 	0.0020257 	998.74 
285.37 	0.0020257 	1165.2 
285.87 	0.0020257 	1165.2 
286.37 	0.0020257 	1331.7 
286.87 	0.0020257 	1165.2 
287.37 	0.0020257 	998.74 
287.87 	0.0020257 	1165.2 
288.37 	0.0019191 	1165.2 
288.87 	0.0020257 	1165.2 
289.37 	0.0020257 	1165.2 
289.87 	0.0020257 	1165.2 
290.37 	0.0020257 	1165.2 
290.87 	0.0020257 	998.74 
291.37 	0.0020257 	1165.2 
291.87 	0.0020257 	1165.2 
292.37 	0.0020257 	1331.7 
292.87 	0.0020257 	1165.2 
293.37 	0.0020257 	1165.2 
293.87 	0.0020257 	1165.2 
294.37 	0.0020257 	998.74 
294.87 	0.0020257 	1165.2 
295.37 	0.0020257 	1165.2 
295.87 	0.0020257 	1331.7 
296.37 	0.0020257 	1165.2 
296.87 	0.0020257 	1165.2 
297.37 	0.0020257 	1165.2 
297.87 	0.0020257 	1165.2 
298.37 	0.0019191 	1165.2 
298.87 	0.0020257 	1331.7 
299.37 	0.0019191 	1331.7 
299.87 	0.0020257 	1331.7 
300.37 	0.0020257 	1165.2 
300.87 	0.0020257 	998.74 
301.37 	0.0020257 	1165.2 
301.87 	0.0020257 	1331.7 
302.37 	0.0020257 	1165.2 
302.87 	0.0019191 	1165.2 
303.37 	0.0020257 	1165.2 
303.87 	0.0019191 	998.74 
304.37 	0.0020257 	1165.2 
304.87 	0.0019191 	1165.2 
305.37 	0.0019191 	1165.2 
305.87 	0.0019191 	1331.7 
306.37 	0.0019191 	1331.7 
306.87 	0.0020257 	1165.2 
307.37 	0.0019191 	1165.2 
307.87 	0.0019191 	1165.2 
308.37 	0.0019191 	1165.2 
308.87 	0.0019191 	1331.7 
309.37 	0.0019191 	1165.2 
309.87 	0.0019191 	1165.2 
310.37 	0.0019191 	1165.2 
310.87 	0.0019191 	1165.2 
311.37 	0.0018125 	998.74 
311.87 	0.0019191 	1165.2 
312.37 	0.0019191 	1165.2 
312.87 	0.0019191 	1165.2 
313.37 	0.0019191 	1165.2 
313.87 	0.0019191 	1165.2 
314.37 	0.0019191 	998.74 
314.87 	0.0019191 	1165.2 
315.37 	0.0019191 	1165.2 
315.87 	0.0019191 	1165.2 
316.37 	0.0019191 	1331.7 
316.87 	0.0019191 	1165.2 
317.37 	0.0019191 	1165.2 
317.87 	0.0019191 	1165.2 
318.37 	0.0018125 	998.74 
318.87 	0.0019191 	1165.2 
319.37 	0.0018125 	1331.7 
319.87 	0.0019191 	1331.7 
320.37 	0.0019191 	998.74 
320.87 	0.0019191 	998.74 
321.37 	0.0019191 	1165.2 
321.87 	0.0019191 	1331.7 
322.37 	0.0019191 	1165.2 
322.87 	0.0019191 	1165.2 
323.37 	0.0019191 	1165.2 
323.87 	0.0019191 	1165.2 
324.37 	0.0019191 	1165.2 
324.87 	0.0019191 	1165.2 
325.37 	0.0019191 	1165.2 
325.87 	0.0020257 	1331.7 
326.37 	0.0019191 	1165.2 
326.87 	0.0019191 	1165.2 
327.37 	0.0019191 	1165.2 
327.87 	0.0019191 	998.74 
328.37 	0.0019191 	1165.2 
328.87 	0.0019191 	1165.2 
329.37 	0.0018125 	1331.7 
329.87 	0.0020257 	1498.1 
330.37 	0.0020257 	1831.0 
330.87 	0.0021324 	2163.9 
331.37 	0.0023456 	2829.8 
331.87 	0.0024522 	3329.1 
332.37 	0.0026655 	3828.5 
332.87 	0.0027721 	4161.4 
333.28 	0.0029853 	4827.2 
333.65 	0.0030919 	5493.1 
334.15 	0.0033052 	5826.0 
334.65 	0.0034118 	6325.4 
335.08 	0.0035184 	6991.2 
335.58 	0.0037316 	7490.6 
336.08 	0.0038383 	7989.9 
336.58 	0.0040515 	8655.8 
337.08 	0.0041581 	8988.7 
337.58 	0.0043713 	9488.0 
338.05 	0.0044780 	10154 
338.55 	0.0046912 	10487 
339.05 	0.0047978 	11153 
339.55 	0.0049044 	11486 
340.05 	0.0050111 	11985 
340.55 	0.0052243 	12318 
341.05 	0.0053309 	12817 
341.55 	0.0054375 	13317 
341.97 	0.0056508 	13982 
342.45 	0.0058640 	14648 
342.93 	0.0061839 	15314 
343.43 	0.0062905 	15813 
343.93 	0.0065037 	16313 
344.43 	0.0066103 	16812 
344.92 	0.0067169 	17478 
345.42 	0.0069302 	17977 
345.92 	0.0070368 	18477 
346.42 	0.0072500 	18976 
346.92 	0.0073566 	19475 
347.42 	0.0075699 	19975 
347.92 	0.0076765 	20474 
348.42 	0.0078897 	20974 
348.92 	0.0079964 	21473 
349.40 	0.0082096 	22139 
349.90 	0.0084228 	22638 
350.40 	0.0085294 	22805 
350.90 	0.0085294 	22971 
351.40 	0.0085294 	23137 
351.90 	0.0086361 	23137 
352.40 	0.0086361 	23137 
352.90 	0.0086361 	23304 
353.40 	0.0086361 	23137 
353.90 	0.0086361 	23137 
354.40 	0.0086361 	22971 
354.90 	0.0087427 	23137 
355.40 	0.0086361 	23137 
355.90 	0.0087427 	22971 
356.40 	0.0086361 	23137 
356.90 	0.0087427 	23304 
357.40 	0.0086361 	23137 
357.90 	0.0086361 	23137 
358.40 	0.0086361 	23137 
358.90 	0.0086361 	23137 
359.40 	0.0087427 	23137 
359.90 	0.0087427 	23137 
360.40 	0.0087427 	23137 
360.90 	0.0086361 	23137 
361.40 	0.0086361 	23137 
361.90 	0.0086361 	23137 
362.40 	0.0086361 	23137 
362.90 	0.0086361 	23137 
363.40 	0.0086361 	23137 
363.90 	0.0086361 	23137 
364.40 	0.0086361 	23137 
364.90 	0.0086361 	22971 
365.40 	0.0086361 	23137 
365.90 	0.0086361 	23137 
366.40 	0.0086361 	22971 
366.90 	0.0086361 	23137 
367.40 	0.0086361 	23304 
367.90 	0.0087427 	23137 
368.40 	0.0086361 	23137 
368.90 	0.0087427 	23137 
369.40 	0.0086361 	23137 
369.90 	0.0086361 	23137 
370.40 	0.0086361 	23137 
370.90 	0.0086361 	23137 
371.40 	0.0087427 	23137 
371.90 	0.0087427 	23304 
372.40 	0.0086361 	23137 
372.90 	0.0086361 	23137 
373.40 	0.0086361 	23137 
373.90 	0.0086361 	22971 
374.40 	0.0086361 	23137 
374.90 	0.0086361 	23137 
375.40 	0.0086361 	23137 
375.90 	0.0086361 	23137 
376.40 	0.0086361 	23137 
376.90 	0.0086361 	22971 
377.40 	0.0086361 	23137 
377.90 	0.0086361 	23137 
378.40 	0.0086361 	23137 
378.90 	0.0086361 	23304 
379.40 	0.0086361 	23137 
379.90 	0.0086361 	23137 
380.40 	0.0086361 	23137 
380.90 	0.0085294 	23137 
381.40 	0.0086361 	23137 
381.90 	0.0086361 	23137 
382.40 	0.0086361 	23304 
382.90 	0.0086361 	23137 
383.40 	0.0086361 	23137 
383.90 	0.0085294 	23137 
384.40 	0.0085294 	23137 
384.90 	0.0086361 	23137 
385.40 	0.0086361 	23137 
385.90 	0.0086361 	23137 
386.40 	0.0086361 	23137 
386.90 	0.0086361 	23137 
387.40 	0.0086361 	23137 
387.90 	0.0086361 	23137 
388.40 	0.0086361 	23137 
388.90 	0.0086361 	23137 
389.40 	0.0086361 	23137 
389.90 	0.0085294 	22971 
390.40 	0.0086361 	23137 
390.90 	0.0085294 	23137 
391.40 	0.0085294 	23137 
391.90 	0.0086361 	23137 
392.40 	0.0085294 	23137 
392.90 	0.0085294 	23137 
393.40 	0.0086361 	23137 
393.90 	0.0086361 	23137 
394.40 	0.0086361 	23137 
394.90 	0.0086361 	23137 
395.40 	0.0086361 	23137 
395.90 	0.0086361 	23137 
396.40 	0.0085294 	23137 
396.90 	0.0086361 	23137 
397.40 	0.0086361 	23137 
397.90 	0.0086361 	23304 
398.40 	0.0086361 	23137 
398.90 	0.0086361 	23137 
399.40 	0.0086361 	23137 
399.90 	0.0086361 	23137 
400.40 	0.0086361 	23137 
400.90 	0.0086361 	23137 
401.40 	0.0086361 	23304 
401.90 	0.0086361 	23137 
402.40 	0.0086361 	23137 
402.90 	0.0086361 	22971 
403.40 	0.0086361 	23137 
403.90 	0.0086361 	23137 
404.40 	0.0086361 	23137 
404.90 	0.0086361 	23137 
405.40 	0.0085294 	22971 
405.90 	0.0086361 	23137 
406.40 	0.0086361 	23137 
406.90 	0.0085294 	23304 
407.40 	0.0086361 	23137 
407.90 	0.0085294 	23137 
408.40 	0.0086361 	23137 
408.90 	0.0086361 	23137 
409.40 	0.0085294 	23137 
409.90 	0.0086361 	23137 
410.40 	0.0086361 	23137 
410.90 	0.0085294 	22971 
411.40 	0.0084228 	22472 
411.80 	0.0083162 	21806 
412.30 	0.0081030 	21306 
412.80 	0.0078897 	20807 
413.30 	0.0078897 	20141 
413.80 	0.0076765 	19642 
414.30 	0.0075699 	19143 
414.80 	0.0073566 	18643 
415.30 	0.0072500 	18144 
415.80 	0.0071434 	17644 
416.30 	0.0070368 	17145 
416.80 	0.0068236 	16646 
417.30 	0.0067169 	16146 
417.80 	0.0066103 	15647 
418.30 	0.0065037 	15314 
418.80 	0.0062905 	14981 
419.23 	0.0061839 	14315 
419.73 	0.0060772 	13982 
420.23 	0.0059706 	13483 
420.68 	0.0057574 	12817 
421.17 	0.0055441 	12151 
421.65 	0.0053309 	11486 
422.15 	0.0052243 	11153 
422.57 	0.0051177 	10487 
423.07 	0.0049044 	9987.4 
423.57 	0.0047978 	9488.0 
424.07 	0.0045846 	9155.1 
424.57 	0.0044780 	8489.3 
425.07 	0.0042647 	7989.9 
425.57 	0.0041581 	7490.6 
426.07 	0.0039449 	6824.7 
426.57 	0.0037316 	6491.8 
427.07 	0.0036250 	5992.4 
427.50 	0.0035184 	5326.6 
428.00 	0.0033052 	4993.7 
428.50 	0.0030919 	4660.8 
428.92 	0.0029853 	3995.0 
429.42 	0.0027721 	3495.6 
429.92 	0.0026655 	3162.7 
430.28 	0.0025588 	2496.9 
430.78 	0.0023456 	2330.4 
431.28 	0.0022390 	1831.0 
431.78 	0.0021324 	1664.6 
432.28 	0.0021324 	1498.1 
432.78 	0.0020257 	1664.6 
433.28 	0.0020257 	1498.1 
433.78 	0.0020257 	1331.7 
434.28 	0.0019191 	1331.7 
434.78 	0.0019191 	1165.2 
435.28 	0.0019191 	1331.7 
435.78 	0.0019191 	1165.2 
436.28 	0.0019191 	1165.2 
436.78 	0.0019191 	1331.7 
437.28 	0.0019191 	1165.2 
437.78 	0.0019191 	1165.2 
438.28 	0.0019191 	1165.2 
438.78 	0.0019191 	1165.2 
439.28 	0.0019191 	1165.2 
439.78 	0.0019191 	1165.2 
440.28 	0.0018125 	1331.7 
440.78 	0.0018125 	1165.2 
441.28 	0.0019191 	998.74 
441.78 	0.0019191 	1165.2 
442.28 	0.0019191 	998.74 
442.78 	0.0018125 	1165.2 
443.28 	0.0019191 	1165.2 
443.78 	0.0019191 	1165.2 
444.28 	0.0019191 	1165.2 
444.78 	0.0018125 	1331.7 
445.28 	0.0018125 	1165.2 
445.78 	0.0019191 	1165.2 
446.28 	0.0018125 	998.74 
446.78 	0.0018125 	998.74 
447.28 	0.0019191 	1331.7 
447.78 	0.0019191 	1165.2 
448.28 	0.0019191 	1165.2 
448.78 	0.0018125 	1165.2 
449.28 	0.0018125 	1165.2 
449.78 	0.0018125 	1165.2 
450.28 	0.0018125 	1165.2 
450.78 	0.0019191 	998.74 
451.28 	0.0018125 	1165.2 
451.78 	0.0019191 	1165.2 
452.28 	0.0018125 	1165.2 
452.78 	0.0019191 	1165.2 
453.28 	0.0018125 	998.74 
453.78 	0.0018125 	1165.2 
454.28 	0.0019191 	1165.2 
454.78 	0.0018125 	1165.2 
455.28 	0.0018125 	1165.2 
455.78 	0.0018125 	1165.2 
456.28 	0.0018125 	1331.7 
456.78 	0.0018125 	998.74 
457.28 	0.0019191 	1165.2 
457.78 	0.0018125 	1165.2 
458.28 	0.0018125 	1165.2 
458.78 	0.0018125 	1165.2 
459.28 	0.0018125 	1165.2 
459.78 	0.0018125 	1165.2 
460.28 	0.0019191 	1165.2 
460.78 	0.0019191 	1165.2 
461.28 	0.0019191 	1331.7 
461.78 	0.0018125 	998.74 
462.28 	0.0018125 	998.74 
462.78 	0.0018125 	1165.2 
463.28 	0.0019191 	1165.2 
463.78 	0.0019191 	1331.7 
464.28 	0.0018125 	1165.2 
464.78 	0.0019191 	1165.2 
465.28 	0.0019191 	1165.2 
465.78 	0.0019191 	1165.2 
466.28 	0.0018125 	1165.2 
466.78 	0.0019191 	1165.2 
467.28 	0.0019191 	1165.2 
467.78 	0.0019191 	1165.2 
468.28 	0.0019191 	1165.2 
468.78 	0.0019191 	1165.2 
469.28 	0.0018125 	1331.7 
469.78 	0.0018125 	1165.2 
470.28 	0.0019191 	1165.2 
470.78 	0.0019191 	1165.2 
471.28 	0.0018125 	1165.2 
471.78 	0.0018125 	1165.2 
472.28 	0.0018125 	1165.2 
472.78 	0.0019191 	1165.2 
473.28 	0.0018125 	998.74 
473.78 	0.0018125 	1165.2 
474.28 	0.0018125 	998.74 
474.78 	0.0018125 	1165.2 
475.28 	0.0018125 	1165.2 
475.78 	0.0018125 	1165.2 
476.28 	0.0018125 	1331.7 
476.78 	0.0018125 	1331.7 
477.28 	0.0018125 	1165.2 
477.78 	0.0018125 	1165.2 
478.28 	0.0018125 	998.74 
478.78 	0.0018125 	1165.2 
479.28 	0.0018125 	1331.7 
479.78 	0.0018125 	1331.7 
480.28 	0.0018125 	1165.2 
480.78 	0.0018125 	1165.2 
481.28 	0.0019191 	998.74 
481.78 	0.0018125 	1165.2 
482.28 	0.0019191 	1331.7 
482.78 	0.0018125 	1165.2 
483.28 	0.0018125 	1165.2 
483.78 	0.0018125 	998.74 
484.28 	0.0018125 	1331.7 
484.78 	0.0018125 	1165.2 
485.28 	0.0018125 	1165.2 
485.78 	0.0018125 	998.74 
486.28 	0.0018125 	1165.2 
486.78 	0.0018125 	1165.2 
487.28 	0.0018125 	1165.2 
487.78 	0.0018125 	1165.2 
488.28 	0.0018125 	1165.2 
488.78 	0.0018125 	1165.2 
489.28 	0.0018125 	998.74 
489.78 	0.0019191 	998.74 
490.28 	0.0018125 	1165.2 
490.78 	0.0019191 	1331.7 
491.28 	0.0018125 	1331.7 
491.78 	0.0018125 	1165.2 
492.28 	0.0018125 	998.74 
492.78 	0.0018125 	998.74 
493.08 	0.0018125 	1165.2 
493.58 	0.0018125 	1165.2 
494.08 	0.0018125 	998.74 
494.58 	0.0018125 	1165.2 
495.08 	0.0019191 	1331.7 
495.58 	0.0018125 	1165.2 
496.08 	0.0018125 	1165.2 
496.58 	0.0018125 	1165.2 
497.08 	0.0018125 	998.74 
497.58 	0.0018125 	998.74 
498.08 	0.0019191 	1165.2 
498.58 	0.0018125 	1165.2 
499.08 	0.0018125 	1165.2 
499.58 	0.0019191 	1165.2 
500.08 	0.0018125 	1165.2 
500.58 	0.0018125 	1331.7 
501.08 	0.0018125 	1165.2 
501.58 	0.0018125 	1165.2 
502.08 	0.0018125 	998.74 
502.58 	0.0018125 	1165.2 
503.08 	0.0018125 	1165.2 
503.58 	0.0018125 	1165.2 
504.08 	0.0018125 	1331.7 
504.58 	0.0018125 	1331.7 
505.08 	0.0018125 	1165.2 
505.58 	0.0018125 	1165.2 
506.08 	0.0018125 	998.74 
506.58 	0.0018125 	1165.2 
507.08 	0.0018125 	1165.2 
507.58 	0.0018125 	1165.2 
508.08 	0.0018125 	1331.7 
508.58 	0.0018125 	1165.2 
509.08 	0.0019191 	1165.2 
509.58 	0.0018125 	1165.2 
510.08 	0.0019191 	998.74 
510.58 	0.0018125 	1165.2 
511.08 	0.0018125 	1331.7 
511.58 	0.0018125 	1165.2 
512.08 	0.0019191 	1165.2 
512.58 	0.0018125 	1165.2 
513.08 	0.0018125 	998.74 
513.58 	0.0019191 	1165.2 
514.08 	0.0019191 	1165.2 
514.58 	0.0019191 	1165.2 
515.08 	0.0019191 	1331.7 
515.58 	0.0019191 	1165.2 
516.08 	0.0019191 	1165.2 
516.58 	0.0018125 	1165.2 
517.08 	0.0018125 	1165.2 
517.58 	0.0018125 	1165.2 
518.08 	0.0018125 	1165.2 
518.58 	0.0018125 	1165.2 
519.08 	0.0018125 	1165.2 
519.58 	0.0019191 	1165.2 
520.08 	0.0018125 	1165.2 
520.58 	0.0019191 	1165.2 
521.08 	0.0019191 	1331.7 
521.58 	0.0018125 	1165.2 
522.08 	0.0018125 	1165.2 
522.58 	0.0019191 	998.74 
523.07 	0.0018125 	1331.7 
523.57 	0.0019191 	1165.2 
524.07 	0.0019191 	1165.2 
524.57 	0.0019191 	1165.2 
525.07 	0.0019191 	1498.1 
525.57 	0.0020257 	1831.0 
526.07 	0.0021324 	2330.4 
526.57 	0.0022390 	2829.8 
527.07 	0.0024522 	3329.1 
527.57 	0.0026655 	3828.5 
528.00 	0.0027721 	4494.3 
528.50 	0.0029853 	4993.7 
529.00 	0.0030919 	5493.1 
529.50 	0.0033052 	5992.4 
529.95 	0.0035184 	6658.3 
530.45 	0.0036250 	6991.2 
530.83 	0.0037316 	7657.0 
531.33 	0.0040515 	7989.9 
531.75 	0.0040515 	8655.8 
532.25 	0.0042647 	9155.1 
532.75 	0.0043713 	9488.0 
533.22 	0.0045846 	10154 
533.72 	0.0046912 	10487 
534.22 	0.0049044 	11153 
534.72 	0.0049044 	11486 
535.22 	0.0052243 	11985 
535.72 	0.0052243 	12318 
536.22 	0.0054375 	12817 
536.72 	0.0055441 	13317 
537.12 	0.0057574 	13982 
537.58 	0.0059706 	14648 
538.08 	0.0061839 	15314 
538.58 	0.0063971 	15813 
539.08 	0.0065037 	16313 
539.58 	0.0067169 	16812 
540.00 	0.0068236 	17478 
540.50 	0.0070368 	17811 
541.00 	0.0072500 	18477 
541.50 	0.0074633 	18810 
542.00 	0.0075699 	19475 
542.50 	0.0077831 	19808 
543.00 	0.0078897 	20308 
543.48 	0.0081030 	20974 
543.97 	0.0081030 	21639 
544.47 	0.0083162 	21972 
544.95 	0.0085294 	22638 
545.45 	0.0086361 	22805 
545.95 	0.0086361 	22971 
546.45 	0.0087427 	23137 
546.95 	0.0087427 	23137 
547.45 	0.0087427 	23137 
547.95 	0.0087427 	23137 
548.45 	0.0087427 	23137 
548.95 	0.0087427 	23137 
549.45 	0.0087427 	23304 
549.95 	0.0087427 	23137 
550.45 	0.0086361 	23137 
550.95 	0.0087427 	22971 
551.45 	0.0087427 	22971 
551.95 	0.0087427 	23137 
552.45 	0.0087427 	23137 
552.95 	0.0088493 	23137 
553.45 	0.0087427 	23137 
553.95 	0.0087427 	23137 
554.45 	0.0087427 	23137 
554.95 	0.0087427 	23137 
555.45 	0.0087427 	23137 
555.95 	0.0087427 	23137 
556.45 	0.0087427 	23137 
556.95 	0.0087427 	23137 
557.45 	0.0086361 	23137 
557.95 	0.0087427 	22971 
558.45 	0.0087427 	23137 
558.95 	0.0086361 	23137 
559.45 	0.0087427 	23137 
559.95 	0.0086361 	23304 
560.45 	0.0087427 	23137 
560.95 	0.0086361 	23137 
561.45 	0.0087427 	23137 
561.95 	0.0087427 	23137 
562.45 	0.0087427 	23137 
562.95 	0.0087427 	23137 
563.45 	0.0087427 	23137 
563.95 	0.0087427 	23137 
564.45 	0.0086361 	23137 
564.95 	0.0087427 	23137 
565.45 	0.0087427 	23137 
565.95 	0.0087427 	23137 
566.45 	0.0087427 	22971 
566.95 	0.0087427 	23137 
567.45 	0.0087427 	23137 
567.95 	0.0087427 	23137 
568.45 	0.0087427 	23137 
568.95 	0.0087427 	23137 
569.45 	0.0087427 	23137 
569.95 	0.0087427 	23137 
570.45 	0.0087427 	23137 
570.95 	0.0087427 	23137 
571.45 	0.0087427 	23137 
571.95 	0.0087427 	23137 
572.45 	0.0087427 	23137 
572.95 	0.0087427 	23137 
573.45 	0.0087427 	23137 
573.95 	0.0087427 	23137 
574.45 	0.0087427 	23137 
574.95 	0.0087427 	23137 
575.45 	0.0087427 	23137 
575.95 	0.0087427 	23137 
576.45 	0.0087427 	22971 
576.95 	0.0087427 	23137 
577.45 	0.0086361 	23137 
577.95 	0.0087427 	23137 
578.45 	0.0087427 	23137 
578.95 	0.0087427 	23137 
579.45 	0.0087427 	23137 
579.95 	0.0087427 	23137 
580.45 	0.0086361 	23137 
580.95 	0.0086361 	22971 
581.45 	0.0086361 	22971 
581.95 	0.0087427 	23137 
582.45 	0.0087427 	23304 
582.95 	0.0086361 	23137 
583.45 	0.0086361 	23137 
583.95 	0.0086361 	22971 
584.45 	0.0087427 	23137 
584.95 	0.0087427 	23137 
585.45 	0.0087427 	23304 
585.95 	0.0087427 	23137 
586.45 	0.0086361 	23137 
586.95 	0.0087427 	23137 
587.45 	0.0086361 	23137 
587.95 	0.0086361 	23137 
588.45 	0.0086361 	23137 
588.95 	0.0086361 	23137 
589.45 	0.0087427 	23137 
589.95 	0.0086361 	23137 
590.45 	0.0086361 	23137 
590.95 	0.0087427 	23137 
591.45 	0.0086361 	22971 
591.95 	0.0086361 	23137 
592.45 	0.0086361 	23137 
592.95 	0.0087427 	23137 
593.45 	0.0087427 	23137 
593.95 	0.0087427 	23137 
594.45 	0.0086361 	23137 
594.95 	0.0087427 	23304 
595.45 	0.0087427 	23137 
595.95 	0.0087427 	23137 
596.45 	0.0086361 	23137 
596.95 	0.0086361 	23137 
597.45 	0.0087427 	23137 
597.95 	0.0086361 	23137 
598.45 	0.0086361 	23137 
598.95 	0.0086361 	23137 
599.45 	0.0086361 	23137 
599.95 	0.0086361 	23137 
600.45 	0.0086361 	23137 
600.95 	0.0086361 	23137 
601.45 	0.0087427 	23137 
601.95 	0.0086361 	23137 
602.45 	0.0086361 	23137 
602.95 	0.0086361 	23137 
603.45 	0.0086361 	23137 
603.95 	0.0086361 	23137 
604.45 	0.0086361 	23137 
604.95 	0.0086361 	23137 
605.33 	0.0086361 	23137 
605.83 	0.0086361 	23137 
606.33 	0.0086361 	23137 
606.83 	0.0087427 	23137 
607.33 	0.0086361 	23137 
607.83 	0.0087427 	23137 
608.33 	0.0086361 	23137 
608.83 	0.0086361 	23304 
609.33 	0.0086361 	23137 
609.83 	0.0086361 	23137 
610.33 	0.0086361 	23137 
610.83 	0.0086361 	23137 
611.33 	0.0086361 	23137 
611.83 	0.0087427 	23137 
612.33 	0.0086361 	23137 
612.83 	0.0086361 	23137 
613.33 	0.0086361 	23137 
613.83 	0.0086361 	23137 
614.33 	0.0086361 	23137 
614.83 	0.0086361 	23137 
615.33 	0.0086361 	23137 
615.83 	0.0087427 	23137 
616.33 	0.0086361 	22971 
616.83 	0.0086361 	23137 
617.33 	0.0086361 	23304 
617.83 	0.0086361 	23137 
618.33 	0.0086361 	23137 
618.83 	0.0086361 	23137 
619.33 	0.0086361 	23137 
619.83 	0.0087427 	23137 
620.33 	0.0086361 	23137 
620.83 	0.0087427 	23137 
621.33 	0.0086361 	23137 
621.83 	0.0086361 	23137 
622.33 	0.0086361 	23137 
622.83 	0.0086361 	23137 
623.33 	0.0086361 	23137 
623.83 	0.0086361 	23137 
624.33 	0.0086361 	23137 
624.83 	0.0086361 	23137 
625.33 	0.0086361 	23137 
625.83 	0.0086361 	23304 
626.33 	0.0086361 	23137 
626.83 	0.0086361 	23137 
627.33 	0.0086361 	23137 
627.83 	0.0087427 	23137 
628.33 	0.0086361 	23137 
628.83 	0.0086361 	22971 
629.33 	0.0086361 	23137 
629.83 	0.0086361 	23137 
630.33 	0.0087427 	23137 
630.83 	0.0087427 	23137 
631.33 	0.0086361 	23137 
631.83 	0.0087427 	23137 
632.33 	0.0086361 	23137 
632.83 	0.0086361 	23137 
633.33 	0.0086361 	23137 
633.83 	0.0086361 	23137 
634.33 	0.0086361 	23137 
634.83 	0.0086361 	23137 
635.33 	0.0086361 	23137 
635.83 	0.0086361 	22971 
636.33 	0.0087427 	23137 
636.83 	0.0087427 	23304 
637.33 	0.0087427 	23137 
637.83 	0.0087427 	23137 
638.33 	0.0087427 	23137 
638.83 	0.0087427 	23137 
639.33 	0.0087427 	23137 
639.83 	0.0087427 	23137 
640.33 	0.0087427 	23304 
640.83 	0.0087427 	23304 
641.33 	0.0087427 	23137 
641.83 	0.0087427 	23137 
642.33 	0.0087427 	23137 
642.83 	0.0087427 	23137 
643.33 	0.0087427 	23304 
643.83 	0.0087427 	23137 
644.33 	0.0087427 	23137 
644.83 	0.0087427 	23137 
645.33 	0.0087427 	23137 
645.83 	0.0087427 	23137 
646.33 	0.0087427 	23137 
646.83 	0.0087427 	23137 
647.33 	0.0087427 	23137 
647.83 	0.0087427 	23137 
648.33 	0.0087427 	23137 
648.83 	0.0087427 	22971 
649.33 	0.0087427 	23137 
649.83 	0.0087427 	23137 
650.33 	0.0087427 	23137 
650.83 	0.0087427 	23137 
651.33 	0.0087427 	23137 
651.83 	0.0087427 	23137 
652.33 	0.0087427 	23137 
652.83 	0.0087427 	22971 
653.33 	0.0087427 	22971 
653.83 	0.0087427 	23137 
654.33 	0.0087427 	23137 
654.83 	0.0087427 	23137 
655.33 	0.0087427 	23137 
655.83 	0.0087427 	23137 
656.33 	0.0087427 	23137 
656.83 	0.0087427 	23137 
657.33 	0.0087427 	23137 
657.83 	0.0087427 	23137 
658.33 	0.0087427 	23137 
658.83 	0.0087427 	23137 
659.33 	0.0087427 	23137 
659.83 	0.0087427 	23137 
660.33 	0.0087427 	23137 
660.83 	0.0087427 	23137 
661.33 	0.0087427 	23137 
661.83 	0.0087427 	23137 
662.33 	0.0087427 	23137 
662.83 	0.0087427 	23137 
663.33 	0.0087427 	23137 
663.83 	0.0087427 	23137 
664.33 	0.0087427 	22971 
664.83 	0.0087427 	23137 
665.33 	0.0087427 	23137 
665.83 	0.0087427 	23137 
666.33 	0.0087427 	23137 
666.83 	0.0087427 	23137 
667.33 	0.0087427 	23137 
667.83 	0.0087427 	23137 
668.33 	0.0087427 	23137 
668.83 	0.0087427 	23137 
669.33 	0.0087427 	23137 
669.83 	0.0087427 	23304 
670.33 	0.0087427 	23137 
670.83 	0.0087427 	23137 
671.33 	0.0087427 	23137 
671.83 	0.0087427 	23137 
672.33 	0.0087427 	23137 
672.83 	0.0087427 	23137 
673.33 	0.0087427 	23137 
673.83 	0.0087427 	23137 
674.33 	0.0087427 	23137 
674.83 	0.0087427 	23137 
675.33 	0.0087427 	23137 
675.83 	0.0087427 	23137 
676.33 	0.0087427 	23137 
676.83 	0.0087427 	23137 
677.33 	0.0087427 	23137 
677.83 	0.0087427 	22971 
678.33 	0.0087427 	22971 
678.83 	0.0087427 	22971 
679.33 	0.0087427 	23137 
679.83 	0.0087427 	23137 
680.33 	0.0087427 	23304 
680.83 	0.0087427 	23137 
681.33 	0.0087427 	23137 
681.83 	0.0087427 	23137 
682.33 	0.0087427 	23137 
682.83 	0.0087427 	23304 
683.33 	0.0087427 	23137 
683.83 	0.0087427 	23137 
684.33 	0.0087427 	23137 
684.83 	0.0087427 	23137 
685.33 	0.0087427 	23137 
685.83 	0.0087427 	23137 
686.33 	0.0087427 	23137 
686.83 	0.0087427 	23137 
687.33 	0.0087427 	23137 
687.83 	0.0087427 	23137 
688.33 	0.0087427 	23137 
688.83 	0.0087427 	23137 
689.33 	0.0087427 	23137 
689.83 	0.0087427 	23137 
690.33 	0.0087427 	22971 
690.83 	0.0087427 	23137 
691.33 	0.0087427 	23137 
691.83 	0.0087427 	23137 
692.33 	0.0087427 	23137 
692.83 	0.0087427 	22971 
693.33 	0.0087427 	23137 
693.83 	0.0087427 	23137 
694.33 	0.0087427 	23304 
694.83 	0.0087427 	23137 
695.33 	0.0087427 	23137 
695.83 	0.0087427 	23137 
696.33 	0.0087427 	23470 
696.77 	0.0087427 	24136 
697.27 	0.0087427 	24469 
697.63 	0.0087427 	25135 
698.13 	0.0087427 	25468 
698.58 	0.0087427 	26134 
699.08 	0.0087427 	26467 
699.58 	0.0087427 	26966 
700.08 	0.0087427 	27299 
700.47 	0.0087427 	27965 
700.97 	0.0087427 	28298 
701.47 	0.0087427 	28797 
701.97 	0.0087427 	29296 
702.47 	0.0087427 	29796 
702.97 	0.0087427 	30295 
703.47 	0.0087427 	30961 
703.97 	0.0087427 	31294 
704.47 	0.0087427 	31793 
704.97 	0.0087427 	32459 
705.47 	0.0087427 	32792 
705.83 	0.0087427 	33458 
706.33 	0.0087427 	34124 
706.83 	0.0087427 	34623 
707.32 	0.0087427 	35289 
707.82 	0.0087427 	35788 
708.32 	0.0087427 	36288 
708.82 	0.0087427 	36787 
709.32 	0.0087427 	37453 
709.82 	0.0087427 	37786 
710.25 	0.0087427 	38452 
710.75 	0.0087427 	38951 
711.25 	0.0087427 	39450 
711.75 	0.0087427 	39950 
712.25 	0.0087427 	40449 
712.75 	0.0087427 	40948 
713.25 	0.0087427 	41614 
713.75 	0.0087427 	41947 
714.20 	0.0087427 	42613 
714.70 	0.0087427 	43112 
715.20 	0.0087427 	43612 
715.70 	0.0087427 	44111 
716.20 	0.0087427 	44777 
716.70 	0.0087427 	45110 
717.20 	0.0087427 	45776 
717.70 	0.0087427 	46275 
718.20 	0.0087427 	46774 
718.70 	0.0087427 	47274 
719.20 	0.0087427 	47773 
719.67 	0.0087427 	48439 
720.17 	0.0087427 	48772 
720.63 	0.0087427 	49438 
721.13 	0.0087427 	49937 
721.63 	0.0087427 	50270 
722.05 	0.0087427 	50936 
722.55 	0.0087427 	51435 
723.05 	0.0087427 	51935 
723.55 	0.0087427 	52600 
724.05 	0.0087427 	53100 
724.55 	0.0087427 	53433 
725.03 	0.0087427 	54098 
725.53 	0.0087427 	54598 
726.03 	0.0087427 	55097 
726.53 	0.0087427 	55597 
727.03 	0.0087427 	56096 
727.52 	0.0087427 	56762 
728.02 	0.0087427 	57095 
728.50 	0.0087427 	57761 
729.00 	0.0087427 	58260 
729.50 	0.0087427 	58759 
730.00 	0.0087427 	59259 
730.47 	0.0087427 	59924 
730.97 	0.0087427 	60257 
731.42 	0.0087427 	60923 
731.92 	0.0087427 	61256 
732.42 	0.0087427 	61755 
732.92 	0.0087427 	62421 
733.42 	0.0087427 	62754 
733.82 	0.0087427 	63420 
734.32 	0.0087427 	63753 
734.75 	0.0087427 	64419 
735.25 	0.0087427 	64918 
735.75 	0.0087427 	65418 
736.25 	0.0087427 	65917 
736.75 	0.0087427 	66416 
737.25 	0.0087427 	66916 
737.73 	0.0087427 	67581 
738.23 	0.0087427 	67914 
738.68 	0.0087427 	68580 
739.18 	0.0087427 	69080 
739.68 	0.0087427 	69579 
740.18 	0.0087427 	70078 
740.68 	0.0087427 	70578 
741.18 	0.0087427 	71244 
741.68 	0.0087427 	71743 
742.18 	0.0087427 	72076 
742.65 	0.0087427 	72742 
743.15 	0.0087427 	73241 
743.65 	0.0087427 	73740 
744.15 	0.0087427 	74240 
744.62 	0.0087427 	74906 
745.12 	0.0087427 	75405 
745.62 	0.0087427 	75904 
746.12 	0.0087427 	76404 
746.62 	0.0087427 	76903 
747.12 	0.0087427 	77236 
747.53 	0.0087427 	77902 
748.03 	0.0087427 	78401 
748.53 	0.0087427 	78901 
749.03 	0.0087427 	79400 
749.53 	0.0087427 	80066 
750.03 	0.0087427 	80399 
750.48 	0.0087427 	81064 
750.98 	0.0087427 	81397 
751.40 	0.0087427 	82063 
751.90 	0.0087427 	82396 
752.40 	0.0087427 	83062 
752.90 	0.0087427 	83561 
753.40 	0.0087427 	84227 
753.90 	0.0087427 	84560 
754.35 	0.0087427 	85226 
754.85 	0.0087427 	85559 
755.28 	0.0087427 	86225 
755.78 	0.0087427 	86558 
756.22 	0.0087427 	87223 
756.72 	0.0087427 	87556 
757.22 	0.0087427 	88222 
757.72 	0.0087427 	88555 
758.22 	0.0087427 	89221 
758.72 	0.0087427 	89720 
759.22 	0.0087427 	90220 
759.72 	0.0087427 	90719 
760.17 	0.0087427 	91385 
760.67 	0.0087427 	91718 
761.17 	0.0087427 	92217 
761.65 	0.0087427 	92883 
762.15 	0.0087427 	93216 
762.58 	0.0087427 	93882 
763.08 	0.0087427 	94381 
763.58 	0.0087427 	94880 
764.08 	0.0087427 	95380 
764.58 	0.0087427 	95879 
765.08 	0.0087427 	96378 
765.58 	0.0087427 	96878 
766.05 	0.0087427 	97544 
766.55 	0.0087427 	98043 
767.05 	0.0087427 	98376 
767.47 	0.0087427 	99042 
767.97 	0.0087427 	99541 
768.47 	0.0087427 	100040 
768.97 	0.0087427 	100540 
769.47 	0.0087427 	101040 
769.95 	0.0087427 	101710 
770.45 	0.0087427 	102200 
770.95 	0.0087427 	102700 
771.45 	0.0087427 	103200 
771.95 	0.0087427 	103700 
772.45 	0.0087427 	104200 
772.95 	0.0087427 	104700 
773.45 	0.0087427 	105370 
773.95 	0.0087427 	105870 
774.45 	0.0087427 	106370 
774.95 	0.0087427 	106870 
775.45 	0.0087427 	107530 
775.95 	0.0087427 	107860 
776.40 	0.0087427 	108530 
776.90 	0.0087427 	108860 
777.40 	0.0087427 	109530 
777.90 	0.0087427 	110030 
778.40 	0.0087427 	110530 
778.90 	0.0087427 	111030 
779.40 	0.0087427 	111530 
779.90 	0.0087427 	112190 
780.40 	0.0087427 	112520 
780.83 	0.0087427 	113190 
781.33 	0.0087427 	113690 
781.83 	0.0087427 	114190 
782.33 	0.0087427 	114690 
782.83 	0.0087427 	115190 
783.33 	0.0087427 	115690 
783.82 	0.0087427 	116350 
784.32 	0.0087427 	116690 
784.77 	0.0087427 	117350 
785.27 	0.0087427 	117850 
785.77 	0.0087427 	118350 
786.27 	0.0087427 	118850 
786.75 	0.0087427 	119520 
787.25 	0.0087427 	119850 
787.75 	0.0087427 	120510 
788.25 	0.0087427 	121010 
788.75 	0.0087427 	121510 
789.25 	0.0087427 	122010 
789.75 	0.0087427 	122510 
790.25 	0.0087427 	123010 
790.75 	0.0087427 	123510 
791.20 	0.0087427 	124180 
791.70 	0.0087427 	124680 
792.20 	0.0087427 	125180 
792.70 	0.0087427 	125670 
793.20 	0.0087427 	126170 
793.70 	0.0087427 	126670 
794.17 	0.0087427 	127340 
794.67 	0.0087427 	127840 
795.17 	0.0087427 	128170 
795.67 	0.0087427 	128840 
796.17 	0.0087427 	129340 
796.67 	0.0087427 	129840 
797.17 	0.0087427 	130340 
797.67 	0.0087427 	130840 
798.17 	0.0087427 	131500 
798.67 	0.0087427 	132000 
799.17 	0.0087427 	132500 
799.67 	0.0087427 	133000 
800.17 	0.0087427 	133500 
800.67 	0.0087427 	134160 
801.17 	0.0087427 	134660 
801.67 	0.0087427 	135160 
802.17 	0.0087427 	135660 
802.67 	0.0087427 	136330 
803.17 	0.0087427 	136830 
803.67 	0.0087427 	137330 
804.17 	0.0087427 	137830 
804.67 	0.0087427 	138330 
805.17 	0.0087427 	138990 
805.67 	0.0087427 	139320 
806.17 	0.0087427 	139820 
806.67 	0.0087427 	140490 
807.17 	0.0087427 	140990 
807.67 	0.0087427 	141490 
808.17 	0.0087427 	141990 
808.67 	0.0087427 	142490 
809.17 	0.0087427 	142990 
809.67 	0.0087427 	143650 
810.17 	0.0087427 	144150 
810.67 	0.0087427 	144650 
811.17 	0.0087427 	145320 
811.67 	0.0087427 	145650 
812.17 	0.0087427 	146320 
812.67 	0.0087427 	146810 
813.17 	0.0087427 	147310 
813.67 	0.0087427 	147980 
814.17 	0.0087427 	148310 
814.67 	0.0087427 	148810 
815.17 	0.0087427 	149480 
815.67 	0.0087427 	149980 
816.17 	0.0087427 	150480 
816.67 	0.0087427 	151140 
817.17 	0.0087427 	151480 
817.67 	0.0087427 	152140 
818.17 	0.0087427 	152640 
818.67 	0.0087427 	153140 
819.17 	0.0087427 	153640 
819.67 	0.0087427 	154140 
820.17 	0.0087427 	154640 
820.67 	0.0087427 	155300 
821.17 	0.0087427 	155800 
821.67 	0.0087427 	156300 
822.17 	0.0087427 	156800 
822.67 	0.0087427 	157300 
823.17 	0.0087427 	157970 
823.67 	0.0087427 	158470 
824.17 	0.0087427 	158970 
824.67 	0.0087427 	159470 
825.17 	0.0087427 	159960 
825.67 	0.0087427 	160630 
826.17 	0.0087427 	161130 
826.67 	0.0087427 	161630 
827.17 	0.0087427 	162130 
827.67 	0.0087427 	162790 
828.17 	0.0087427 	163290 
828.67 	0.0087427 	163630 
829.17 	0.0087427 	164290 
829.67 	0.0087427 	164790 
830.17 	0.0087427 	165290 
830.67 	0.0087427 	165790 
831.17 	0.0087427 	166460 
831.67 	0.0087427 	166960 
832.17 	0.0087427 	167460 
832.67 	0.0087427 	167950 
833.17 	0.0087427 	168450 
833.67 	0.0087427 	169120 
834.17 	0.0087427 	169620 
834.67 	0.0087427 	170120 
835.17 	0.0087427 	170620 
835.67 	0.0087427 	171120 
836.17 	0.0087427 	171780 
836.67 	0.0087427 	172120 
837.17 	0.0087427 	172780 
837.67 	0.0087427 	173280 
838.17 	0.0087427 	173780 
838.67 	0.0087427 	174280 
839.17 	0.0087427 	174950 
839.67 	0.0087427 	175280 
840.17 	0.0087427 	175940 
840.67 	0.0087427 	176440 
841.17 	0.0087427 	176940 
841.67 	0.0087427 	177440 
842.17 	0.0087427 	177940 
842.67 	0.0087427 	178610 
843.17 	0.0087427 	179110 
843.67 	0.0087427 	179610 
844.17 	0.0087427 	179940 
844.67 	0.0087427 	180610 
845.17 	0.0087427 	181100 
845.67 	0.0087427 	181770 
846.17 	0.0087427 	182100 
846.67 	0.0087427 	182770 
847.17 	0.0087427 	183270 
847.67 	0.0087427 	183770 
848.17 	0.0087427 	184270 
848.67 	0.0087427 	184930 
849.17 	0.0087427 	185430 
849.67 	0.0087427 	185930 
850.17 	0.0087427 	186430 
850.67 	0.0087427 	187100 
851.17 	0.0087427 	187600 
851.67 	0.0087427 	188100 
852.17 	0.0087427 	188600 
852.67 	0.0087427 	189090 
853.17 	0.0087427 	189590 
853.67 	0.0087427 	190260 
854.17 	0.0087427 	190760 
854.67 	0.0087427 	191260 
855.17 	0.0087427 	191760 
855.67 	0.0087427 	192260 
856.17 	0.0087427 	192920 
856.67 	0.0087427 	193260 
857.17 	0.0087427 	193920 
857.67 	0.0087427 	194420 
858.17 	0.0087427 	194920 
858.67 	0.0087427 	195590 
859.17 	0.0087427 	195920 
859.67 	0.0087427 	196590 
860.17 	0.0087427 	197080 
860.67 	0.0087427 	197580 
861.17 	0.0087427 	197920 
861.67 	0.0087427 	198750 
862.17 	0.0087427 	199080 
862.67 	0.0087427 	199750 
863.17 	0.0087427 	200250 
863.67 	0.0087427 	200750 
864.17 	0.0087427 	201250 
864.67 	0.0087427 	201750 
865.17 	0.0087427 	202410 
865.67 	0.0087427 	202910 
866.17 	0.0087427 	203410 
866.67 	0.0087427 	203910 
867.17 	0.0087427 	204410 
867.67 	0.0087427 	204910 
868.17 	0.0087427 	205410 
868.67 	0.0087427 	205910 
869.17 	0.0087427 	206570 
869.67 	0.0087427 	207070 
870.17 	0.0087427 	207570 
870.67 	0.0087427 	208070 
871.17 	0.0087427 	208740 
871.67 	0.0087427 	209240 
872.17 	0.0087427 	209740 
872.67 	0.0087427 	210230 
873.17 	0.0087427 	210900 
873.67 	0.0087427 	211230 
874.17 	0.0087427 	211900 
874.67 	0.0087427 	212400 
875.17 	0.0087427 	213060 
875.67 	0.0087427 	213400 
876.17 	0.0087427 	214060 
876.67 	0.0087427 	214400 
877.17 	0.0087427 	215060 
877.67 	0.0087427 	215560 
878.17 	0.0087427 	216060 
878.67 	0.0087427 	216730 
879.17 	0.0087427 	217060 
879.67 	0.0087427 	217730 
880.17 	0.0087427 	218060 
880.67 	0.0087427 	218720 
881.17 	0.0087427 	219220 
881.67 	0.0087427 	219720 
882.17 	0.0087427 	220390 
882.67 	0.0087427 	220890 
883.17 	0.0087427 	221390 
883.67 	0.0087427 	221890 
884.17 	0.0087427 	222390 
884.67 	0.0087427 	222890 
885.17 	0.0087427 	223550 
885.67 	0.0087427 	224050 
886.17 	0.0087427 	224550 
886.67 	0.0087427 	225050 
887.17 	0.0087427 	225720 
887.67 	0.0087427 	226050 
888.17 	0.0087427 	226550 
888.67 	0.0087427 	227210 
889.17 	0.0087427 	227710 
889.67 	0.0087427 	228210 
890.17 	0.0087427 	228710 
890.67 	0.0087427 	229380 
891.17 	0.0087427 	229880 
891.67 	0.0087427 	230380 
892.17 	0.0087427 	230880 
892.67 	0.0087427 	231370 
893.17 	0.0087427 	232040 
893.67 	0.0087427 	232540 
894.17 	0.0087427 	233040 
894.67 	0.0087427 	233540 
895.17 	0.0087427 	234200 
895.67 	0.0087427 	234540 
896.17 	0.0087427 	235200 
896.67 	0.0087427 	235700 
897.17 	0.0087427 	236200 
897.67 	0.0087427 	236700 
898.17 	0.0087427 	237370 
898.67 	0.0087427 	237700 
899.17 	0.0087427 	238370 
899.67 	0.0087427 	238700 
900.17 	0.0087427 	239360 
900.67 	0.0087427 	239860 
901.17 	0.0087427 	240360 
901.67 	0.0087427 	240860 
902.17 	0.0087427 	241530 
902.67 	0.0087427 	242190 
903.17 	0.0087427 	242530 
903.67 	0.0087427 	243030 
904.17 	0.0087427 	243530 
904.67 	0.0087427 	244190 
905.17 	0.0087427 	244690 
905.67 	0.0087427 	245190 
906.17 	0.0087427 	245690 
906.67 	0.0087427 	246360 
907.17 	0.0087427 	246860 
907.67 	0.0087427 	247190 
908.17 	0.0087427 	247850 
908.67 	0.0087427 	248350 
909.17 	0.0087427 	248850 
909.67 	0.0087427 	249350 
910.17 	0.0087427 	250020 
910.67 	0.0087427 	250520 
911.17 	0.0087427 	251020 
911.67 	0.0087427 	251520 
912.17 	0.0087427 	252020 
912.67 	0.0087427 	252510 
913.17 	0.0087427 	253180 
913.67 	0.0087427 	253680 
914.17 	0.0087427 	254180 
914.67 	0.0087427 	254680 
915.17 	0.0087427 	255340 
915.67 	0.0087427 	255680 
916.17 	0.0087427 	256180 
916.67 	0.0087427 	256840 
917.17 	0.0087427 	257340 
917.67 	0.0087427 	257840 
918.17 	0.0087427 	258340 
918.67 	0.0087427 	259010 
919.17 	0.0087427 	259510 
919.67 	0.0087427 	260010 
920.17 	0.0087427 	260500 
920.67 	0.0087427 	261000 
921.17 	0.0087427 	261500 
921.67 	0.0087427 	262170 
922.17 	0.0087427 	262670 
922.67 	0.0087427 	263000 
923.17 	0.0087427 	263670 
923.67 	0.0087427 	264170 
924.17 	0.0087427 	264830 
924.67 	0.0087427 	265170 
925.17 	0.0087427 	265830 
925.67 	0.0087427 	266330 
926.17 	0.0087427 	267000 
926.67 	0.0087427 	267330 
927.17 	0.0087427 	267830 
927.67 	0.0087427 	268330 
928.17 	0.0087427 	268990 
928.67 	0.0087427 	269490 
929.17 	0.0087427 	269990 
929.67 	0.0087427 	270660 
930.17 	0.0087427 	271160 
930.67 	0.0087427 	271490 
931.17 	0.0087427 	272160 
931.67 	0.0087427 	272660 
932.17 	0.0087427 	273320 
932.67 	0.0087427 	273650 
933.17 	0.0087427 	274320 
933.67 	0.0087427 	274820 
934.17 	0.0087427 	275320 
934.67 	0.0087427 	275820 
935.17 	0.0087427 	276320 
935.67 	0.0087427 	276980 
936.17 	0.0087427 	277480 
936.67 	0.0087427 	277980 
937.17 	0.0087427 	278480 
937.67 	0.0087427 	278980 
938.17 	0.0087427 	279650 
938.67 	0.0087427 	279980 
939.17 	0.0087427 	280480 
939.67 	0.0087427 	281150 
940.17 	0.0087427 	281640 
940.67 	0.0087427 	282310 
941.17 	0.0087427 	282640 
941.67 	0.0087427 	283310 
942.17 	0.0087427 	283810 
942.67 	0.0087427 	284310 
943.17 	0.0087427 	284970 
943.67 	0.0087427 	285310 
944.17 	0.0087427 	285810 
944.67 	0.0087427 	286470 
945.17 	0.0087427 	286970 
945.67 	0.0087427 	287470 
946.17 	0.0087427 	287970 
946.67 	0.0087427 	288470 
947.17 	0.0087427 	289140 
947.67 	0.0087427 	289630 
948.17 	0.0087427 	290130 
948.67 	0.0087427 	290630 
949.17 	0.0087427 	291130 
949.67 	0.0087427 	291630 
950.17 	0.0087427 	292300 
950.67 	0.0087427 	292800 
951.17 	0.0087427 	293300 
951.67 	0.0087427 	293800 
952.17 	0.0087427 	294460 
952.67 	0.0087427 	294790 
953.17 	0.0087427 	295460 
953.67 	0.0087427 	295960 
954.17 	0.0087427 	296460 
954.67 	0.0087427 	296960 
955.17 	0.0087427 	297460 
955.67 	0.0087427 	298120 
956.17 	0.0087427 	298620 
956.67 	0.0087427 	299120 
957.17 	0.0087427 	299620 
957.67 	0.0087427 	300290 
958.17 	0.0087427 	300790 
958.67 	0.0087427 	301290 
959.17 	0.0087427 	301790 
959.67 	0.0087427 	302290 
960.17 	0.0087427 	302950 
960.67 	0.0087427 	303280 
961.17 	0.0087427 	303950 
961.67 	0.0087427 	304450 
962.17 	0.0087427 	304950 
962.67 	0.0087427 	305450 
963.17 	0.0087427 	305950 
963.67 	0.0087427 	306610 
964.17 	0.0087427 	305280 
964.67 	0.0087427 	307450 
965.17 	0.0087427 	308110 
965.67 	0.0087427 	308610 
966.17 	0.0087427 	309110 
966.67 	0.0087427 	309610 
967.17 	0.0087427 	310280 
967.67 	0.0087427 	310770 
968.17 	0.0087427 	311270 
968.67 	0.0087427 	311770 
969.17 	0.0087427 	312440 
969.67 	0.0087427 	312770 
970.17 	0.0087427 	313440 
970.67 	0.0087427 	313940 
971.17 	0.0087427 	314440 
971.67 	0.0087427 	315100 
972.17 	0.0087427 	315440 
972.67 	0.0087427 	316100 
973.17 	0.0087427 	316600 
973.67 	0.0087427 	317100 
974.17 	0.0087427 	317600 
974.67 	0.0087427 	318270 
975.17 	0.0087427 	318600 
975.67 	0.0087427 	319100 
976.17 	0.0087427 	319600 
976.67 	0.0087427 	320260 
977.17 	0.0087427 	320760 
977.67 	0.0087427 	321430 
978.17 	0.0087427 	321760 
978.67 	0.0087427 	322430 
979.17 	0.0087427 	322930 
979.67 	0.0087427 	323430 
980.17 	0.0087427 	324090 
980.67 	0.0087427 	324590 
981.17 	0.0087427 	325090 
981.67 	0.0087427 	325590 
982.17 	0.0087427 	326090 
982.67 	0.0087427 	326590 
983.17 	0.0087427 	327090 
983.67 	0.0087427 	327750 
984.17 	0.0087427 	328250 
984.67 	0.0087427 	328590 
985.17 	0.0087427 	329250 
985.67 	0.0087427 	329750 
986.17 	0.0087427 	330250 
986.67 	0.0087427 	330920 
987.17 	0.0087427 	331420 
987.67 	0.0087427 	331910 
988.17 	0.0087427 	332410 
988.67 	0.0087427 	332910 
989.17 	0.0087427 	333580 
989.67 	0.0087427 	334080 
990.17 	0.0087427 	334580 
990.67 	0.0087427 	335080 
991.17 	0.0087427 	335580 
991.67 	0.0087427 	336080 
992.17 	0.0087427 	336580 
992.67 	0.0087427 	337240 
993.17 	0.0087427 	337740 
993.67 	0.0087427 	338240 
994.17 	0.0087427 	338910 
994.67 	0.0087427 	339410 
995.17 	0.0087427 	339900 
995.67 	0.0087427 	340400 
996.17 	0.0087427 	340900 
996.67 	0.0087427 	341400 
997.17 	0.0087427 	341900 
997.67 	0.0087427 	342570 
998.17 	0.0087427 	343070 
998.67 	0.0087427 	343570 
999.17 	0.0087427 	344070 
999.67 	0.0087427 	344730 
1000.2 	0.0087427 	345060 
1000.7 	0.0087427 	345560 
1001.2 	0.0087427 	346230 
1001.7 	0.0087427 	346730 
1002.2 	0.0087427 	347230 
1002.7 	0.0087427 	347730 
1003.2 	0.0087427 	348230 
1003.7 	0.0087427 	348890 
1004.2 	0.0087427 	349390 
1004.7 	0.0087427 	349890 
1005.2 	0.0087427 	350390 
1005.7 	0.0087427 	351060 
1006.2 	0.0087427 	351390 
1006.7 	0.0087427 	351890 
1007.2 	0.0087427 	352390 
1007.7 	0.0087427 	353050 
1008.2 	0.0087427 	353550 
1008.7 	0.0087427 	354050 
1009.2 	0.0087427 	354550 
1009.7 	0.0087427 	355220 
1010.2 	0.0087427 	355720 
1010.7 	0.0087427 	356220 
1011.2 	0.0087427 	356720 
1011.7 	0.0087427 	357220 
1012.2 	0.0087427 	357880 
1012.7 	0.0087427 	358380 
1013.2 	0.0087427 	358880 
1013.7 	0.0087427 	359380 
1014.2 	0.0087427 	359880 
1014.7 	0.0087427 	360380 
1015.2 	0.0087427 	361040 
1015.7 	0.0087427 	361540 
1016.2 	0.0087427 	362040 
1016.7 	0.0087427 	362540 
1017.2 	0.0087427 	363210 
1017.7 	0.0087427 	363540 
1018.2 	0.0087427 	364040 
1018.7 	0.0087427 	364710 
1019.2 	0.0087427 	365210 
1019.7 	0.0087427 	365710 
1020.2 	0.0087427 	366200 
1020.7 	0.0087427 	366870 
1021.2 	0.0087427 	367370 
1021.7 	0.0087427 	367870 
1022.2 	0.0087427 	368200 
1022.7 	0.0087427 	368870 
1023.2 	0.0087427 	369530 
1023.7 	0.0087427 	370030 
1024.2 	0.0087427 	370530 
1024.7 	0.0087427 	371030 
1025.2 	0.0087427 	371700 
1025.7 	0.0087427 	372030 
1026.2 	0.0087427 	372530 
1026.7 	0.0087427 	373200 
1027.2 	0.0087427 	373700 
1027.7 	0.0087427 	374190 
1028.2 	0.0087427 	374690 
1028.7 	0.0087427 	375190 
1029.2 	0.0087427 	375860 
1029.7 	0.0087427 	376360 
1030.2 	0.0087427 	376860 
1030.7 	0.0087427 	377360 
1031.2 	0.0087427 	377860 
1031.7 	0.0087427 	378360 
1032.2 	0.0087427 	379020 
1032.7 	0.0087427 	379520 
1033.2 	0.0087427 	380020 
1033.7 	0.0087427 	380520 
1034.2 	0.0087427 	381020 
1034.7 	0.0087427 	381690 
1035.2 	0.0087427 	382180 
1035.7 	0.0087427 	382680 
1036.2 	0.0087427 	383180 
1036.7 	0.0087427 	383680 
1037.2 	0.0087427 	384180 
1037.7 	0.0087427 	384850 
1038.2 	0.0087427 	385350 
1038.7 	0.0087427 	385850 
1039.2 	0.0087427 	386350 
1039.7 	0.0087427 	386850 
1040.2 	0.0087427 	387340 
1040.7 	0.0087427 	388010 
1041.2 	0.0087427 	388510 
1041.7 	0.0087427 	389010 
1042.2 	0.0087427 	389510 
1042.7 	0.0087427 	390010 
1043.2 	0.0087427 	390670 
1043.7 	0.0087427 	391170 
1044.2 	0.0087427 	391670 
1044.7 	0.0087427 	392170 
1045.2 	0.0087427 	392670 
1045.7 	0.0087427 	393170 
1046.2 	0.0087427 	393840 
1046.7 	0.0087427 	394170 
1047.2 	0.0087427 	394840 
1047.7 	0.0087427 	395330 
1048.2 	0.0087427 	395830 
1048.7 	0.0087427 	396500 
1049.2 	0.0087427 	397000 
1049.7 	0.0087427 	397500 
1050.2 	0.0087427 	398000 
1050.7 	0.0087427 	398500 
1051.2 	0.0087427 	399000 
1051.7 	0.0087427 	399660 
1052.2 	0.0087427 	400160 
1052.7 	0.0087427 	400660 
1053.2 	0.0087427 	401160 
1053.7 	0.0087427 	401660 
1054.2 	0.0087427 	402160 
1054.7 	0.0087427 	402830 
1055.2 	0.0087427 	403320 
1055.7 	0.0087427 	403820 
1056.2 	0.0087427 	404320 
1056.7 	0.0087427 	404990 
1057.2 	0.0087427 	405320 
1057.7 	0.0087427 	405990 
1058.2 	0.0087427 	406490 
1058.7 	0.0087427 	406990 
1059.2 	0.0087427 	407490 
1059.7 	0.0087427 	407990 
1060.2 	0.0087427 	408650 
1060.7 	0.0087427 	409150 
1061.2 	0.0087427 	409650 
1061.7 	0.0087427 	410150 
1062.2 	0.0087427 	410650 
1062.7 	0.0087427 	411150 
1063.2 	0.0087427 	411650 
1063.7 	0.0087427 	412310 
1064.2 	0.0087427 	412810 
1064.7 	0.0087427 	413310 
1065.2 	0.0087427 	413810 
1065.7 	0.0087427 	414310 
1066.2 	0.0087427 	414810 
1066.7 	0.0087427 	415480 
1067.2 	0.0087427 	415980 
1067.7 	0.0087427 	416470 
1068.2 	0.0087427 	417140 
1068.7 	0.0087427 	417470 
1069.2 	0.0087427 	418140 
1069.7 	0.0087427 	418640 
1070.2 	0.0087427 	419140 
1070.7 	0.0087427 	419640 
1071.2 	0.0087427 	420300 
1071.7 	0.0087427 	420640 
1072.2 	0.0087427 	421140 
1072.7 	0.0087427 	421800 
1073.2 	0.0087427 	422300 
1073.7 	0.0087427 	422970 
1074.2 	0.0087427 	423470 
1074.7 	0.0087427 	423800 
1075.2 	0.0087427 	424300 
1075.7 	0.0087427 	424960 
1076.2 	0.0087427 	425460 
1076.7 	0.0087427 	425960 
1077.2 	0.0087427 	426630 
1077.7 	0.0087427 	427130 
1078.2 	0.0087427 	427630 
1078.7 	0.0087427 	428130 
1079.2 	0.0087427 	428630 
1079.7 	0.0087427 	429130 
1080.2 	0.0087427 	429790 
1080.7 	0.0087427 	430290 
1081.2 	0.0087427 	430790 
1081.7 	0.0087427 	431290 
1082.2 	0.0087427 	431960 
1082.7 	0.0087427 	432450 
1083.2 	0.0087427 	432950 
1083.7 	0.0087427 	433450 
1084.2 	0.0087427 	433950 
1084.7 	0.0087427 	434450 
1085.2 	0.0087427 	435120 
1085.7 	0.0087427 	435450 
1086.2 	0.0087427 	436120 
1086.7 	0.0087427 	436620 
1087.2 	0.0087427 	437120 
1087.7 	0.0087427 	437610 
1088.2 	0.0087427 	438110 
1088.7 	0.0087427 	438610 
1089.2 	0.0087427 	439110 
1089.7 	0.0087427 	439780 
1090.2 	0.0087427 	440280 
1090.7 	0.0087427 	440780 
1091.2 	0.0087427 	441280 
1091.7 	0.0087427 	441780 
1092.2 	0.0087427 	442280 
1092.7 	0.0087427 	442940 
1093.2 	0.0087427 	443440 
1093.7 	0.0087427 	444110 
1094.2 	0.0087427 	444610 
1094.7 	0.0087427 	445110 
1095.2 	0.0087427 	445600 
1095.7 	0.0087427 	446100 
1096.2 	0.0087427 	446600 
1096.7 	0.0087427 	447100 
1097.2 	0.0087427 	447770 
1097.7 	0.0087427 	448270 
1098.2 	0.0087427 	448770 
1098.7 	0.0087427 	449430 
1099.2 	0.0087427 	449770 
1099.7 	0.0087427 	450430 
1100.2 	0.0087427 	450760 
1100.7 	0.0087427 	451430 
1101.2 	0.0087427 	451930 
1101.7 	0.0087427 	452430 
1102.2 	0.0087427 	453100 
1102.7 	0.0087427 	453430 
1103.2 	0.0087427 	453930 
1103.7 	0.0087427 	454590 
1104.2 	0.0087427 	455090 
1104.7 	0.0087427 	455590 
1105.2 	0.0087427 	456260 
1105.7 	0.0087427 	456760 
1106.2 	0.0087427 	457260 
1106.7 	0.0087427 	457760 
1107.2 	0.0087427 	458260 
1107.7 	0.0087427 	458750 
1108.2 	0.0087427 	459420 
1108.7 	0.0087427 	459750 
1109.2 	0.0087427 	460420 
1109.7 	0.0087427 	460920 
1110.2 	0.0087427 	461420 
1110.7 	0.0087427 	462080 
1111.2 	0.0087427 	462580 
1111.7 	0.0087427 	462920 
1112.2 	0.0087427 	463580 
1112.7 	0.0087427 	464080 
1113.2 	0.0087427 	464580 
1113.7 	0.0087427 	465080 
1114.2 	0.0087427 	465580 
1114.7 	0.0087427 	466250 
1115.2 	0.0087427 	466740 
1115.7 	0.0087427 	467240 
1116.2 	0.0087427 	467910 
1116.7 	0.0087427 	468410 
1117.2 	0.0087427 	468910 
1117.7 	0.0087427 	469410 
1118.2 	0.0087427 	469910 
1118.7 	0.0087427 	470410 
1119.2 	0.0087427 	470910 
1119.7 	0.0087427 	471570 
1120.2 	0.0087427 	472070 
1120.7 	0.0087427 	472570 
1121.2 	0.0087427 	473070 
1121.7 	0.0087427 	473570 
1122.2 	0.0087427 	474240 
1122.7 	0.0087427 	474570 
1123.2 	0.0087427 	475230 
1123.7 	0.0087427 	475730 
1124.2 	0.0087427 	476230 
1124.7 	0.0087427 	476730 
1125.2 	0.0087427 	477230 
1125.7 	0.0087427 	477900 
1126.2 	0.0087427 	478400 
1126.7 	0.0087427 	478900 
1127.2 	0.0087427 	479400 
1127.7 	0.0087427 	480060 
1128.2 	0.0087427 	480390 
1128.7 	0.0087427 	481060 
1129.2 	0.0087427 	481560 
1129.7 	0.0087427 	482060 
1130.2 	0.0087427 	482560 
1130.7 	0.0087427 	483220 
1131.2 	0.0087427 	483720 
1131.7 	0.0087427 	484220 
1132.2 	0.0087427 	484720 
1132.7 	0.0087427 	485220 
1133.2 	0.0087427 	485720 
1133.7 	0.0087427 	486220 
1134.2 	0.0087427 	486720 
1134.7 	0.0087427 	487390 
1135.2 	0.0087427 	487880 
1135.7 	0.0087427 	488380 
1136.2 	0.0087427 	488880 
1136.7 	0.0087427 	489380 
1137.2 	0.0087427 	490050 
1137.7 	0.0087427 	490550 
1138.2 	0.0087427 	491050 
1138.7 	0.0087427 	491550 
1139.2 	0.0087427 	492050 
1139.7 	0.0087427 	492710 
1140.2 	0.0087427 	493040 
1140.7 	0.0087427 	493710 
1141.2 	0.0087427 	494210 
1141.7 	0.0087427 	494710 
1142.2 	0.0087427 	495380 
1142.7 	0.0087427 	495870 
1143.2 	0.0087427 	496370 
1143.7 	0.0087427 	496870 
1144.2 	0.0087427 	497370 
1144.7 	0.0087427 	497870 
1145.2 	0.0087427 	498370 
1145.7 	0.0087427 	499040 
1146.2 	0.0087427 	499540 
1146.7 	0.0087427 	500040 
1147.2 	0.0087427 	500540 
1147.7 	0.0087427 	501030 
1148.2 	0.0087427 	501530 
1148.7 	0.0087427 	502200 
1149.2 	0.0087427 	502700 
1149.7 	0.0087427 	503200 
1150.2 	0.0087427 	503700 
1150.7 	0.0087427 	504360 
1151.2 	0.0087427 	504860 
1151.7 	0.0087427 	505360 
1152.2 	0.0087427 	505860 
1152.7 	0.0087427 	506360 
1153.2 	0.0087427 	507030 
1153.7 	0.0087427 	507530 
1154.2 	0.0087427 	508030 
1154.7 	0.0087427 	508530 
1155.2 	0.0087427 	509020 
1155.7 	0.0087427 	509520 
1156.2 	0.0087427 	510020 
1156.7 	0.0087427 	510690 
1157.2 	0.0087427 	511020 
1157.7 	0.0087427 	511690 
1158.2 	0.0087427 	512020 
1158.7 	0.0087427 	512690 
1159.2 	0.0087427 	513350 
1159.7 	0.0087427 	513850 
1160.2 	0.0087427 	514350 
1160.7 	0.0087427 	514850 
1161.2 	0.0087427 	515350 
1161.7 	0.0087427 	515850 
1162.2 	0.0087427 	516520 
1162.7 	0.0087427 	516850 
1163.2 	0.0087427 	517510 
1163.7 	0.0087427 	518010 
1164.2 	0.0087427 	518510 
1164.7 	0.0087427 	519010 
1165.0 	0.0087427 	510520 
1165.2 	0.0087427 	514520 
1165.4 	0.0087427 	518510 
1165.9 	0.0087427 	520340 
1166.4 	0.0087427 	520840 
1166.9 	0.0087427 	521340 
1167.4 	0.0087427 	522010 
1167.9 	0.0087427 	522510 
1168.4 	0.0087427 	523010 
1168.9 	0.0087427 	523510 
1169.4 	0.0087427 	524170 
1169.9 	0.0087427 	524670 
1170.4 	0.0087427 	525170 
1170.9 	0.0087427 	525670 
1171.4 	0.0087427 	526170 
1171.9 	0.0087427 	526670 
1172.4 	0.0087427 	527170 
1172.9 	0.0087427 	527670 
1173.4 	0.0087427 	528330 
1173.9 	0.0087427 	528830 
1174.4 	0.0087427 	529330 
1174.9 	0.0087427 	529830 
1175.4 	0.0087427 	530500 
1175.9 	0.0087427 	531000 
1176.4 	0.0087427 	531500 
1176.9 	0.0087427 	532160 
1177.4 	0.0087427 	532500 
1177.9 	0.0087427 	532990 
1178.4 	0.0087427 	533490 
1178.9 	0.0087427 	534160 
1179.4 	0.0087427 	534660 
1179.9 	0.0087427 	535330 
1180.4 	0.0087427 	535660 
1180.9 	0.0087427 	536160 
1181.4 	0.0087427 	536820 
1181.9 	0.0087427 	537320 
1182.4 	0.0087427 	537820 
1182.9 	0.0087427 	538320 
1183.4 	0.0087427 	538820 
1183.9 	0.0087427 	539320 
1184.4 	0.0087427 	539990 
1184.9 	0.0087427 	540320 
1185.4 	0.0087427 	540980 
1185.9 	0.0087427 	541480 
1186.4 	0.0087427 	541980 
1186.9 	0.0087427 	542480 
1187.4 	0.0087427 	543150 
1187.9 	0.0087427 	543650 
1188.4 	0.0087427 	544150 
1188.9 	0.0087427 	544650 
1189.4 	0.0087427 	545310 
1189.9 	0.0087427 	545650 
1190.4 	0.0087427 	546310 
1190.9 	0.0087427 	546810 
1191.4 	0.0087427 	547310 
1191.9 	0.0087427 	547980 
1192.4 	0.0087427 	548310 
1192.9 	0.0087427 	548970 
1193.4 	0.0087427 	549470 
1193.9 	0.0087427 	549970 
1194.4 	0.0087427 	550470 
1194.9 	0.0087427 	550970 
1195.4 	0.0087427 	551640 
1195.9 	0.0087427 	552140 
1196.4 	0.0087427 	552640 
1196.9 	0.0087427 	553140 
1197.4 	0.0087427 	553640 
1197.9 	0.0087427 	554300 
1198.4 	0.0087427 	554800 
1198.9 	0.0087427 	555300 
1199.4 	0.0087427 	555800 
1199.9 	0.0087427 	556300 
1200.4 	0.0087427 	556800 
1200.9 	0.0087427 	557460 
1201.4 	0.0087427 	557960 
1201.9 	0.0087427 	558460 
1202.4 	0.0087427 	558960 
1202.9 	0.0087427 	559630 
1203.4 	0.0087427 	560130 
1203.9 	0.0087427 	560630 
1204.4 	0.0087427 	561130 
1204.9 	0.0087427 	561630 
1205.4 	0.0087427 	562120 
1205.9 	0.0087427 	562620 
1206.4 	0.0087427 	563290 
1206.9 	0.0087427 	563790 
1207.4 	0.0087427 	564290 
1207.9 	0.0087427 	564790 
1208.4 	0.0087427 	565450 
1208.9 	0.0087427 	565950 
1209.4 	0.0087427 	566290 
1209.9 	0.0087427 	566950 
1210.4 	0.0087427 	567450 
1210.9 	0.0087427 	567950 
1211.4 	0.0087427 	568450 
1211.9 	0.0087427 	569120 
1212.4 	0.0087427 	569450 
1212.9 	0.0087427 	570110 
1213.4 	0.0087427 	570610 
1213.9 	0.0087427 	571110 
1214.4 	0.0087427 	571780 
1214.9 	0.0087427 	572110 
1215.4 	0.0087427 	572780 
1215.9 	0.0087427 	573280 
1216.4 	0.0087427 	573780 
1216.9 	0.0087427 	574280 
1217.4 	0.0087427 	574940 
1217.9 	0.0087427 	575440 
1218.4 	0.0087427 	575940 
1218.9 	0.0087427 	576440 
1219.4 	0.0087427 	576940 
1219.9 	0.0087427 	577610 
1220.4 	0.0087427 	577940 
1220.9 	0.0087427 	578440 
1221.4 	0.0087427 	579100 
1221.9 	0.0087427 	579600 
1222.4 	0.0087427 	580100 
1222.9 	0.0087427 	580600 
1223.4 	0.0087427 	581100 
1223.9 	0.0087427 	581770 
1224.4 	0.0087427 	582270 
1224.9 	0.0087427 	582770 
1225.4 	0.0087427 	583260 
1225.9 	0.0087427 	583760 
1226.4 	0.0087427 	584260 
1226.9 	0.0087427 	584930 
1227.4 	0.0087427 	585430 
1227.9 	0.0087427 	585930 
1228.4 	0.0087427 	586590 
1228.9 	0.0087427 	586930 
1229.4 	0.0087427 	587590 
1229.9 	0.0087427 	588090 
1230.4 	0.0087427 	588590 
1230.9 	0.0087427 	589090 
1231.4 	0.0087427 	589760 
1231.9 	0.0087427 	590090 
1232.4 	0.0087427 	590760 
1232.9 	0.0087427 	591250 
1233.4 	0.0087427 	591750 
1233.9 	0.0087427 	592420 
1234.4 	0.0087427 	592750 
1234.9 	0.0087427 	593420 
1235.4 	0.0087427 	593920 
1235.9 	0.0087427 	594420 
1236.4 	0.0087427 	594920 
1236.9 	0.0087427 	595420 
1237.4 	0.0087427 	595920 
1237.9 	0.0087427 	596580 
1238.4 	0.0087427 	597080 
1238.9 	0.0087427 	597580 
1239.4 	0.0087427 	598080 
1239.9 	0.0087427 	598580 
1240.4 	0.0087427 	599080 
1240.9 	0.0087427 	599580 
1241.4 	0.0087427 	600240 
1241.9 	0.0087427 	600580 
1242.4 	0.0087427 	601240 
1242.9 	0.0087427 	601740 
1243.4 	0.0087427 	602240 
1243.9 	0.0087427 	602910 
1244.4 	0.0087427 	603410 
1244.9 	0.0087427 	603910 
1245.4 	0.0087427 	604400 
1245.9 	0.0087427 	604900 
1246.4 	0.0087427 	605570 
1246.9 	0.0087427 	606070 
1247.4 	0.0087427 	606570 
1247.9 	0.0087427 	607070 
1248.4 	0.0087427 	607570 
1248.9 	0.0087427 	608230 
1249.4 	0.0087427 	608400 
1249.9 	0.0087427 	609230 
1250.4 	0.0087427 	609730 
1250.9 	0.0087427 	610230 
1251.4 	0.0087427 	610730 
1251.9 	0.0087427 	611230 
1252.4 	0.0087427 	611730 
1252.9 	0.0087427 	612230 
1253.4 	0.0087427 	612890 
1253.9 	0.0087427 	613390 
1254.4 	0.0087427 	613890 
1254.9 	0.0087427 	614560 
1255.4 	0.0087427 	614890 
1255.9 	0.0087427 	615560 
1256.4 	0.0087427 	616060 
1256.9 	0.0087427 	616560 
1257.4 	0.0087427 	611900 
1257.4 	0.0087427 	603240 
1257.5 	0.0087427 	508360 
1257.5 	0.0087427 	227880 
