Tempo(s)	Deformação(mm)	Força(N)
0.016667 	0.00000 	332.91 
0.51667 	0.00000 	499.37 
1.0167 	0.00000 	499.37 
1.5167 	0.00010662 	832.28 
2.0167 	0.00021324 	1331.7 
2.5167 	0.00031985 	1664.6 
2.9333 	0.00042647 	2330.4 
3.4333 	0.00063971 	2663.3 
3.8833 	0.00085294 	3329.1 
4.3833 	0.00085294 	3662.0 
4.8833 	0.0010662 	3995.0 
5.3833 	0.0011728 	4327.9 
5.8833 	0.0012794 	4660.8 
6.3833 	0.0014927 	5160.2 
6.8833 	0.0017059 	5659.5 
7.3833 	0.0019191 	5992.4 
7.8833 	0.0021324 	6325.4 
8.3833 	0.0022390 	6325.4 
8.8833 	0.0024522 	6658.3 
9.3833 	0.0025588 	6824.7 
9.6667 	0.0026655 	7490.6 
10.083 	0.0027721 	8156.4 
10.533 	0.0027721 	8822.2 
10.833 	0.0028787 	9488.0 
11.283 	0.0030919 	10154 
11.683 	0.0031985 	10820 
12.017 	0.0033052 	11486 
12.500 	0.0035184 	12151 
12.917 	0.0037316 	12817 
13.417 	0.0039449 	13317 
13.767 	0.0040515 	13982 
14.267 	0.0041581 	14482 
14.767 	0.0043713 	15148 
15.267 	0.0045846 	15480 
15.733 	0.0046912 	16146 
16.233 	0.0047978 	16479 
16.733 	0.0049044 	16979 
17.233 	0.0050111 	17312 
17.733 	0.0051177 	17644 
18.150 	0.0053309 	18310 
18.500 	0.0054375 	18976 
18.967 	0.0056508 	19642 
19.467 	0.0058640 	20141 
19.967 	0.0059706 	20641 
20.467 	0.0060772 	20974 
20.967 	0.0060772 	20974 
21.467 	0.0061839 	20974 
21.967 	0.0061839 	21140 
22.467 	0.0061839 	21140 
22.967 	0.0061839 	21140 
23.467 	0.0061839 	21140 
23.967 	0.0061839 	21140 
24.467 	0.0060772 	20974 
24.967 	0.0061839 	21140 
25.467 	0.0061839 	21140 
25.967 	0.0061839 	21140 
26.467 	0.0061839 	21140 
26.967 	0.0061839 	20974 
27.467 	0.0061839 	21306 
27.967 	0.0061839 	21140 
28.467 	0.0061839 	21140 
28.967 	0.0061839 	21140 
29.467 	0.0061839 	21140 
29.967 	0.0061839 	20974 
30.467 	0.0061839 	20974 
30.967 	0.0061839 	21140 
31.467 	0.0061839 	21140 
31.967 	0.0061839 	21140 
32.467 	0.0061839 	21140 
32.967 	0.0060772 	21140 
33.467 	0.0061839 	21140 
33.967 	0.0061839 	21140 
34.467 	0.0061839 	21140 
34.967 	0.0061839 	21140 
35.467 	0.0061839 	21306 
35.967 	0.0061839 	21140 
36.467 	0.0061839 	21140 
36.967 	0.0061839 	21140 
37.467 	0.0061839 	21140 
37.967 	0.0061839 	21140 
38.467 	0.0060772 	21140 
38.967 	0.0061839 	21140 
39.467 	0.0061839 	21140 
39.967 	0.0060772 	21140 
40.467 	0.0061839 	21140 
40.967 	0.0060772 	21140 
41.467 	0.0061839 	21140 
41.967 	0.0061839 	21306 
42.467 	0.0060772 	21140 
42.967 	0.0060772 	20974 
43.467 	0.0060772 	21140 
43.967 	0.0061839 	21306 
44.467 	0.0060772 	21140 
44.967 	0.0061839 	21140 
45.467 	0.0060772 	21140 
45.967 	0.0061839 	21140 
46.467 	0.0061839 	21140 
46.967 	0.0061839 	21140 
47.467 	0.0061839 	21140 
47.967 	0.0060772 	21140 
48.467 	0.0060772 	21140 
48.967 	0.0060772 	21140 
49.467 	0.0060772 	21140 
49.967 	0.0060772 	21140 
50.467 	0.0060772 	21140 
50.967 	0.0060772 	21140 
51.467 	0.0061839 	21140 
51.967 	0.0060772 	21306 
52.467 	0.0060772 	20974 
52.967 	0.0060772 	21140 
53.467 	0.0060772 	21140 
53.967 	0.0060772 	21140 
54.467 	0.0060772 	21306 
54.967 	0.0060772 	21140 
55.467 	0.0060772 	21140 
55.967 	0.0060772 	21140 
56.467 	0.0060772 	21140 
56.967 	0.0060772 	21140 
57.467 	0.0060772 	21140 
57.967 	0.0060772 	21140 
58.467 	0.0060772 	21140 
58.967 	0.0060772 	21140 
59.467 	0.0060772 	21140 
59.967 	0.0060772 	20974 
60.467 	0.0060772 	21140 
60.967 	0.0060772 	21306 
61.467 	0.0060772 	21140 
61.967 	0.0060772 	21140 
62.467 	0.0060772 	20974 
62.967 	0.0059706 	20974 
63.467 	0.0060772 	21140 
63.967 	0.0060772 	21140 
64.467 	0.0060772 	21140 
64.967 	0.0059706 	20974 
65.467 	0.0060772 	21140 
65.967 	0.0060772 	21140 
66.467 	0.0060772 	21306 
66.967 	0.0060772 	21140 
67.467 	0.0060772 	21140 
67.967 	0.0060772 	21140 
68.467 	0.0060772 	21140 
68.967 	0.0060772 	20974 
69.467 	0.0059706 	21140 
69.967 	0.0060772 	21140 
70.467 	0.0060772 	21306 
70.967 	0.0060772 	21306 
71.467 	0.0060772 	21140 
71.967 	0.0060772 	20974 
72.467 	0.0059706 	21140 
72.967 	0.0060772 	21140 
73.467 	0.0059706 	21140 
73.967 	0.0060772 	21140 
74.467 	0.0059706 	21140 
74.967 	0.0059706 	21140 
75.467 	0.0059706 	21140 
75.967 	0.0059706 	21306 
76.467 	0.0059706 	21140 
76.967 	0.0060772 	21140 
77.467 	0.0060772 	21140 
77.967 	0.0059706 	21306 
78.467 	0.0060772 	21140 
78.967 	0.0059706 	21140 
79.467 	0.0059706 	21140 
79.967 	0.0060772 	21140 
80.467 	0.0060772 	21140 
80.900 	0.0059706 	20474 
81.400 	0.0058640 	20141 
81.900 	0.0057574 	19808 
82.400 	0.0056508 	19309 
82.900 	0.0055441 	18976 
83.400 	0.0054375 	18643 
83.900 	0.0054375 	18310 
84.267 	0.0052243 	17644 
84.650 	0.0050111 	16979 
85.150 	0.0047978 	16479 
85.617 	0.0045846 	15813 
86.117 	0.0044780 	15314 
86.617 	0.0042647 	14981 
86.983 	0.0041581 	14315 
87.483 	0.0039449 	13816 
87.983 	0.0037316 	13483 
88.467 	0.0036250 	12817 
88.967 	0.0034118 	12318 
89.467 	0.0033052 	11818 
89.967 	0.0030919 	11319 
90.467 	0.0028787 	10986 
90.817 	0.0027721 	10320 
91.317 	0.0025588 	9987.4 
91.817 	0.0023456 	9654.5 
92.167 	0.0022390 	8988.7 
92.667 	0.0020257 	8655.8 
93.167 	0.0018125 	8156.4 
93.667 	0.0015993 	7823.5 
94.133 	0.0014927 	7157.6 
94.633 	0.0012794 	6824.7 
95.133 	0.0011728 	6325.4 
95.633 	0.0010662 	6158.9 
96.133 	0.00095956 	5493.1 
96.633 	0.00085294 	5326.6 
97.133 	0.00074633 	4993.7 
97.633 	0.00085294 	4827.2 
98.133 	0.00085294 	4494.3 
98.633 	0.00095956 	4161.4 
99.133 	0.0011728 	3995.0 
99.633 	0.0011728 	3662.0 
100.13 	0.0013860 	3662.0 
100.63 	0.0013860 	3662.0 
101.13 	0.0013860 	3662.0 
101.63 	0.0013860 	3495.6 
102.13 	0.0012794 	2996.2 
102.63 	0.0010662 	2496.9 
103.13 	0.00095956 	2163.9 
103.63 	0.00085294 	1831.0 
104.13 	0.00074633 	1664.6 
104.63 	0.00074633 	1498.1 
105.13 	0.00063971 	1331.7 
105.63 	0.00063971 	1331.7 
106.13 	0.00063971 	1331.7 
106.63 	0.00053309 	1331.7 
107.13 	0.00063971 	1165.2 
107.63 	0.00063971 	1165.2 
108.13 	0.00053309 	1165.2 
108.63 	0.00053309 	1165.2 
109.13 	0.00053309 	1165.2 
109.63 	0.00053309 	1165.2 
110.13 	0.00053309 	1165.2 
110.63 	0.00053309 	1165.2 
111.13 	0.00053309 	1165.2 
111.63 	0.00053309 	1165.2 
112.13 	0.00053309 	1165.2 
112.63 	0.00053309 	1165.2 
113.13 	0.00053309 	1165.2 
113.63 	0.00053309 	1165.2 
114.13 	0.00053309 	1331.7 
114.63 	0.00053309 	1165.2 
115.13 	0.00053309 	1165.2 
115.63 	0.00053309 	1165.2 
116.13 	0.00053309 	1165.2 
116.63 	0.00042647 	1165.2 
117.13 	0.00053309 	1165.2 
117.63 	0.00042647 	1165.2 
118.13 	0.00053309 	1165.2 
118.63 	0.00053309 	1165.2 
119.13 	0.00053309 	1331.7 
119.63 	0.00053309 	1165.2 
120.13 	0.00042647 	1165.2 
120.63 	0.00053309 	1165.2 
121.13 	0.00042647 	1165.2 
121.63 	0.00053309 	1165.2 
122.13 	0.00053309 	1165.2 
122.63 	0.00053309 	1165.2 
123.13 	0.00042647 	1165.2 
123.63 	0.00042647 	1165.2 
124.13 	0.00042647 	1165.2 
124.63 	0.00053309 	1165.2 
125.13 	0.00042647 	1165.2 
125.63 	0.00042647 	1165.2 
126.13 	0.00042647 	1331.7 
126.63 	0.00042647 	1165.2 
127.13 	0.00042647 	1165.2 
127.63 	0.00042647 	1165.2 
128.13 	0.00042647 	1165.2 
128.63 	0.00042647 	1165.2 
129.13 	0.00042647 	1165.2 
129.63 	0.00042647 	1165.2 
130.13 	0.00042647 	1165.2 
130.63 	0.00042647 	1165.2 
131.13 	0.00042647 	1165.2 
131.63 	0.00042647 	1165.2 
132.13 	0.00042647 	1165.2 
132.63 	0.00042647 	1165.2 
133.13 	0.00042647 	1165.2 
133.63 	0.00042647 	1165.2 
134.13 	0.00042647 	1165.2 
134.63 	0.00042647 	1165.2 
135.13 	0.00042647 	1165.2 
135.63 	0.00042647 	1165.2 
136.13 	0.00042647 	1165.2 
136.63 	0.00042647 	1165.2 
137.13 	0.00042647 	1165.2 
137.63 	0.00042647 	1165.2 
138.13 	0.00042647 	1165.2 
138.63 	0.00031985 	1165.2 
139.13 	0.00042647 	1331.7 
139.63 	0.00031985 	1331.7 
140.13 	0.00042647 	1165.2 
140.63 	0.00042647 	1165.2 
141.13 	0.00042647 	1165.2 
141.63 	0.00031985 	998.74 
142.13 	0.00042647 	1165.2 
142.63 	0.00042647 	1331.7 
143.13 	0.00042647 	1165.2 
143.63 	0.00042647 	1165.2 
144.13 	0.00042647 	1165.2 
144.63 	0.00042647 	1165.2 
145.13 	0.00042647 	1165.2 
145.63 	0.00042647 	1165.2 
146.13 	0.00042647 	1331.7 
146.63 	0.00042647 	1165.2 
147.13 	0.00042647 	1331.7 
147.63 	0.00042647 	1165.2 
148.13 	0.00042647 	1165.2 
148.63 	0.00042647 	1165.2 
149.13 	0.00042647 	1165.2 
149.63 	0.00042647 	1165.2 
150.13 	0.00042647 	1165.2 
150.63 	0.00042647 	1165.2 
151.13 	0.00042647 	1165.2 
151.63 	0.00042647 	1165.2 
152.13 	0.00042647 	1165.2 
152.63 	0.00031985 	1165.2 
153.13 	0.00042647 	1165.2 
153.63 	0.00042647 	1165.2 
154.13 	0.00042647 	1165.2 
154.63 	0.00042647 	1165.2 
155.13 	0.00042647 	1165.2 
155.63 	0.00042647 	1165.2 
156.13 	0.00042647 	1165.2 
156.63 	0.00042647 	1165.2 
157.13 	0.00042647 	1165.2 
157.63 	0.00042647 	1165.2 
158.13 	0.00042647 	1331.7 
158.63 	0.00042647 	998.74 
159.13 	0.00042647 	1165.2 
159.63 	0.00042647 	1165.2 
160.13 	0.00042647 	1165.2 
160.63 	0.00042647 	1165.2 
161.13 	0.00042647 	1165.2 
161.63 	0.00042647 	1331.7 
162.13 	0.00042647 	1165.2 
162.63 	0.00042647 	1165.2 
163.13 	0.00031985 	1165.2 
163.63 	0.00042647 	1331.7 
164.13 	0.00053309 	1664.6 
164.63 	0.00063971 	2163.9 
165.13 	0.00074633 	2496.9 
165.63 	0.00085294 	2996.2 
166.13 	0.0010662 	3495.6 
166.62 	0.0011728 	4161.4 
167.12 	0.0011728 	4161.4 
167.62 	0.0011728 	4494.3 
168.12 	0.0013860 	4993.7 
168.62 	0.0015993 	5326.6 
169.12 	0.0017059 	5826.0 
169.62 	0.0018125 	6325.4 
170.12 	0.0017059 	6491.8 
170.62 	0.0015993 	6491.8 
171.12 	0.0017059 	6658.3 
171.50 	0.0018125 	7324.1 
172.00 	0.0020257 	7657.0 
172.22 	0.0021324 	8322.8 
172.55 	0.0023456 	8988.7 
172.90 	0.0024522 	9654.5 
173.35 	0.0027721 	10320 
173.72 	0.0029853 	10986 
174.15 	0.0031985 	11652 
174.57 	0.0034118 	12318 
175.07 	0.0036250 	12984 
175.57 	0.0038383 	13483 
175.90 	0.0039449 	14149 
176.40 	0.0041581 	14648 
176.88 	0.0043713 	15314 
177.38 	0.0045846 	15813 
177.88 	0.0046912 	16146 
178.38 	0.0047978 	16646 
178.88 	0.0050111 	17145 
179.38 	0.0051177 	17644 
179.88 	0.0051177 	17811 
180.23 	0.0054375 	18477 
180.58 	0.0055441 	19143 
181.08 	0.0057574 	19642 
181.52 	0.0059706 	20308 
182.02 	0.0061839 	20641 
182.52 	0.0061839 	20974 
183.02 	0.0061839 	20974 
183.52 	0.0062905 	21140 
184.02 	0.0062905 	21306 
184.52 	0.0062905 	21140 
185.02 	0.0062905 	21140 
185.52 	0.0062905 	21140 
186.02 	0.0062905 	21140 
186.52 	0.0062905 	21140 
187.02 	0.0062905 	21140 
187.52 	0.0062905 	20974 
188.02 	0.0062905 	20974 
188.52 	0.0062905 	21140 
189.02 	0.0062905 	21140 
189.52 	0.0062905 	21140 
190.02 	0.0062905 	21140 
190.52 	0.0062905 	20974 
191.02 	0.0062905 	21140 
191.52 	0.0062905 	21306 
192.02 	0.0062905 	21140 
192.52 	0.0062905 	20974 
193.02 	0.0062905 	21140 
193.52 	0.0062905 	21306 
194.02 	0.0062905 	21140 
194.52 	0.0062905 	20974 
195.02 	0.0062905 	21140 
195.52 	0.0062905 	20974 
196.02 	0.0062905 	21140 
196.52 	0.0062905 	21140 
197.02 	0.0062905 	21140 
197.52 	0.0062905 	21140 
198.02 	0.0062905 	21140 
198.52 	0.0062905 	21306 
199.02 	0.0062905 	21140 
199.52 	0.0062905 	21140 
200.02 	0.0062905 	21140 
200.52 	0.0062905 	21140 
201.02 	0.0061839 	21140 
201.52 	0.0062905 	21140 
202.02 	0.0062905 	21140 
202.52 	0.0062905 	21140 
203.02 	0.0062905 	21140 
203.52 	0.0062905 	21140 
204.02 	0.0062905 	21140 
204.52 	0.0062905 	21140 
205.02 	0.0062905 	21140 
205.52 	0.0062905 	20974 
206.02 	0.0062905 	21140 
206.52 	0.0062905 	21140 
207.02 	0.0062905 	21140 
207.52 	0.0062905 	21140 
208.02 	0.0061839 	20974 
208.52 	0.0062905 	20974 
209.02 	0.0061839 	21140 
209.52 	0.0061839 	21140 
210.02 	0.0061839 	21140 
210.52 	0.0062905 	20974 
211.02 	0.0062905 	21140 
211.52 	0.0061839 	21140 
212.02 	0.0062905 	21306 
212.52 	0.0062905 	21140 
213.02 	0.0061839 	20974 
213.52 	0.0061839 	21140 
214.02 	0.0061839 	21140 
214.52 	0.0062905 	21140 
215.02 	0.0062905 	21140 
215.52 	0.0062905 	21140 
216.02 	0.0062905 	21140 
216.52 	0.0062905 	21140 
217.02 	0.0062905 	21140 
217.52 	0.0062905 	21140 
218.02 	0.0062905 	21140 
218.52 	0.0061839 	21140 
219.02 	0.0062905 	21140 
219.52 	0.0062905 	21306 
220.02 	0.0062905 	21140 
220.52 	0.0061839 	21140 
221.02 	0.0061839 	21140 
221.52 	0.0062905 	21140 
222.02 	0.0062905 	21140 
222.52 	0.0062905 	21140 
223.02 	0.0062905 	21140 
223.52 	0.0061839 	21140 
224.02 	0.0062905 	21306 
224.52 	0.0061839 	21140 
225.02 	0.0062905 	21140 
225.52 	0.0062905 	20974 
226.02 	0.0062905 	21140 
226.52 	0.0061839 	21306 
227.02 	0.0061839 	21306 
227.52 	0.0062905 	21306 
228.02 	0.0062905 	21140 
228.52 	0.0062905 	21140 
229.02 	0.0062905 	21140 
229.52 	0.0061839 	21140 
230.02 	0.0062905 	21140 
230.52 	0.0062905 	21140 
231.02 	0.0061839 	21140 
231.52 	0.0061839 	21140 
232.02 	0.0062905 	21140 
232.52 	0.0062905 	21140 
233.02 	0.0061839 	21140 
233.52 	0.0062905 	21140 
234.02 	0.0062905 	21140 
234.52 	0.0062905 	21140 
235.02 	0.0062905 	21140 
235.52 	0.0062905 	21140 
236.02 	0.0062905 	21140 
236.52 	0.0061839 	20974 
237.02 	0.0062905 	20974 
237.52 	0.0062905 	21140 
238.02 	0.0062905 	21140 
238.52 	0.0062905 	21140 
239.02 	0.0062905 	21140 
239.52 	0.0061839 	20974 
240.02 	0.0062905 	20974 
240.52 	0.0062905 	21140 
241.02 	0.0062905 	21140 
241.52 	0.0062905 	21140 
242.02 	0.0062905 	20974 
242.52 	0.0062905 	20641 
243.02 	0.0061839 	20308 
243.52 	0.0060772 	19975 
244.02 	0.0059706 	19475 
244.52 	0.0057574 	19143 
245.02 	0.0057574 	18810 
245.52 	0.0056508 	18477 
245.93 	0.0054375 	17811 
246.32 	0.0052243 	17145 
246.82 	0.0050111 	16646 
247.23 	0.0049044 	15980 
247.73 	0.0046912 	15480 
248.23 	0.0044780 	14981 
248.73 	0.0042647 	14482 
249.23 	0.0041581 	13982 
249.73 	0.0040515 	13483 
250.23 	0.0038383 	12984 
250.73 	0.0037316 	12318 
251.23 	0.0035184 	11818 
251.73 	0.0033052 	11486 
252.18 	0.0031985 	10820 
252.68 	0.0029853 	10653 
253.02 	0.0028787 	9987.4 
253.52 	0.0026655 	9654.5 
253.98 	0.0024522 	8988.7 
254.48 	0.0022390 	8655.8 
254.97 	0.0021324 	7989.9 
255.47 	0.0019191 	7823.5 
255.93 	0.0018125 	7157.6 
256.43 	0.0015993 	6824.7 
256.93 	0.0014927 	6491.8 
257.43 	0.0013860 	6158.9 
257.93 	0.0012794 	5659.5 
258.43 	0.0011728 	5326.6 
258.93 	0.0010662 	4993.7 
259.43 	0.00095956 	4660.8 
259.93 	0.00095956 	4494.3 
260.43 	0.00095956 	4161.4 
260.93 	0.00095956 	3828.5 
261.43 	0.0010662 	3662.0 
261.93 	0.0010662 	3662.0 
262.43 	0.0010662 	3662.0 
262.93 	0.0010662 	3662.0 
263.43 	0.0010662 	3495.6 
263.93 	0.00095956 	3162.7 
264.40 	0.00074633 	2496.9 
264.90 	0.00063971 	2163.9 
265.40 	0.00053309 	1831.0 
265.90 	0.00042647 	1664.6 
266.40 	0.00031985 	1498.1 
266.90 	0.00031985 	1498.1 
267.40 	0.00031985 	1331.7 
267.90 	0.00031985 	1331.7 
268.40 	0.00021324 	1331.7 
268.90 	0.00021324 	1165.2 
269.40 	0.00021324 	1165.2 
269.90 	0.00021324 	1165.2 
270.40 	0.00010662 	1165.2 
270.90 	0.00021324 	1165.2 
271.40 	0.00010662 	1165.2 
271.90 	0.00021324 	998.74 
272.40 	0.00021324 	1165.2 
272.90 	0.00021324 	1165.2 
273.40 	0.00021324 	1165.2 
273.90 	0.00021324 	1165.2 
274.40 	0.00021324 	1165.2 
274.90 	0.00010662 	1165.2 
275.40 	0.00021324 	1165.2 
275.90 	0.00021324 	1165.2 
276.40 	0.00021324 	1165.2 
276.90 	0.00021324 	998.74 
277.40 	0.00021324 	1165.2 
277.90 	0.00021324 	1165.2 
278.40 	0.00021324 	1331.7 
278.90 	0.00010662 	1165.2 
279.40 	0.00010662 	1165.2 
279.90 	0.00021324 	1165.2 
280.40 	0.00010662 	1165.2 
280.90 	0.00021324 	1165.2 
281.40 	0.00010662 	1165.2 
281.90 	0.00010662 	1165.2 
282.40 	0.00010662 	1165.2 
282.90 	0.00010662 	1165.2 
283.40 	0.00010662 	1165.2 
283.90 	0.00021324 	1165.2 
284.40 	0.00021324 	1165.2 
284.90 	0.00021324 	1165.2 
285.40 	0.00021324 	1165.2 
285.90 	0.00010662 	1165.2 
286.40 	0.00010662 	1165.2 
286.90 	0.00010662 	1165.2 
287.40 	0.00010662 	1165.2 
287.90 	0.00010662 	1165.2 
288.40 	0.00010662 	1165.2 
288.90 	0.00021324 	1165.2 
289.40 	0.00021324 	1165.2 
289.90 	0.00021324 	1165.2 
290.40 	0.00010662 	1165.2 
290.90 	0.00010662 	1165.2 
291.40 	0.00010662 	1165.2 
291.90 	0.00010662 	1165.2 
292.40 	0.00010662 	1165.2 
292.90 	0.00010662 	1165.2 
293.40 	0.00010662 	1165.2 
293.90 	0.00010662 	1165.2 
294.40 	0.00010662 	1331.7 
294.90 	0.00010662 	1165.2 
295.40 	0.00010662 	1165.2 
295.90 	0.00000 	1165.2 
296.40 	0.00010662 	1165.2 
296.90 	0.00010662 	1331.7 
297.40 	0.00010662 	1165.2 
297.90 	0.00010662 	1331.7 
298.40 	0.00010662 	1165.2 
298.90 	0.00010662 	1165.2 
299.40 	0.00010662 	1165.2 
299.90 	0.00021324 	1165.2 
300.40 	0.00010662 	1165.2 
300.90 	0.00010662 	1165.2 
301.40 	0.00010662 	1165.2 
301.90 	0.00010662 	1165.2 
302.40 	0.00010662 	1165.2 
302.90 	0.00010662 	1165.2 
303.40 	0.00010662 	1165.2 
303.90 	0.00010662 	1165.2 
304.40 	0.00010662 	1165.2 
304.90 	0.00010662 	1165.2 
305.40 	0.00010662 	1165.2 
305.90 	0.00010662 	1165.2 
306.40 	0.00010662 	1165.2 
306.90 	0.00010662 	1165.2 
307.40 	0.00021324 	1165.2 
307.90 	0.00010662 	1165.2 
308.40 	0.00010662 	1165.2 
308.90 	0.00010662 	1165.2 
309.40 	0.00010662 	1165.2 
309.90 	0.00010662 	1165.2 
310.40 	0.00010662 	1331.7 
310.90 	0.00010662 	1165.2 
311.40 	0.00010662 	1165.2 
311.90 	0.00000 	1165.2 
312.40 	0.00010662 	1165.2 
312.90 	0.00010662 	1165.2 
313.40 	0.00000 	1165.2 
313.90 	0.00010662 	1165.2 
314.40 	0.00010662 	1165.2 
314.90 	0.00010662 	1165.2 
315.40 	0.00010662 	1165.2 
315.90 	0.00010662 	1165.2 
316.40 	0.00010662 	1165.2 
316.90 	0.00010662 	1165.2 
317.40 	0.00000 	1165.2 
317.90 	0.00010662 	1331.7 
318.40 	0.00010662 	1331.7 
318.90 	0.00010662 	1165.2 
319.40 	0.00010662 	1165.2 
319.90 	0.00010662 	1165.2 
320.40 	0.00010662 	1165.2 
320.90 	0.00010662 	1331.7 
321.40 	0.00010662 	1165.2 
321.90 	0.00010662 	1165.2 
322.40 	0.00010662 	1165.2 
322.90 	0.00010662 	1165.2 
323.40 	0.00010662 	1165.2 
323.90 	0.00010662 	1165.2 
324.40 	0.00000 	1165.2 
324.90 	0.00010662 	998.74 
325.40 	0.00010662 	1165.2 
325.90 	0.00010662 	1498.1 
326.40 	0.00021324 	1997.5 
326.90 	0.00042647 	2330.4 
327.40 	0.00042647 	2829.8 
327.90 	0.00063971 	3329.1 
328.40 	0.00074633 	3828.5 
328.90 	0.00085294 	4327.9 
329.40 	0.00085294 	4327.9 
329.90 	0.0010662 	4660.8 
330.33 	0.0011728 	5326.6 
330.83 	0.0013860 	5659.5 
331.33 	0.0014927 	6158.9 
331.83 	0.0015993 	6325.4 
332.33 	0.0015993 	6491.8 
332.83 	0.0017059 	6491.8 
333.33 	0.0020257 	6991.2 
333.77 	0.0022390 	7657.0 
334.13 	0.0026655 	8156.4 
334.52 	0.0029853 	8822.2 
334.82 	0.0033052 	9488.0 
335.25 	0.0036250 	10154 
335.65 	0.0039449 	10820 
336.05 	0.0040515 	11486 
336.38 	0.0043713 	12151 
336.88 	0.0044780 	12651 
337.27 	0.0046912 	13317 
337.75 	0.0049044 	13982 
338.25 	0.0050111 	14482 
338.75 	0.0052243 	14981 
339.20 	0.0053309 	15647 
339.70 	0.0055441 	16146 
340.20 	0.0056508 	16479 
340.70 	0.0057574 	16979 
341.20 	0.0058640 	17312 
341.70 	0.0059706 	17478 
341.97 	0.0060772 	18144 
342.35 	0.0062905 	18810 
342.80 	0.0063971 	19475 
343.30 	0.0066103 	19975 
343.80 	0.0068236 	20474 
344.30 	0.0068236 	20974 
344.80 	0.0069302 	20974 
345.30 	0.0068236 	21140 
345.80 	0.0069302 	21140 
346.30 	0.0069302 	21140 
346.80 	0.0069302 	21140 
347.30 	0.0070368 	21140 
347.80 	0.0069302 	20974 
348.30 	0.0069302 	21140 
348.80 	0.0070368 	21140 
349.30 	0.0069302 	21306 
349.80 	0.0069302 	21140 
350.30 	0.0069302 	21140 
350.80 	0.0069302 	21140 
351.30 	0.0069302 	20974 
351.80 	0.0069302 	21306 
352.30 	0.0069302 	21140 
352.80 	0.0069302 	21140 
353.30 	0.0069302 	20974 
353.80 	0.0069302 	21140 
354.30 	0.0069302 	21140 
354.80 	0.0069302 	21140 
355.30 	0.0069302 	21140 
355.80 	0.0069302 	21140 
356.30 	0.0069302 	21140 
356.80 	0.0069302 	21140 
357.30 	0.0069302 	21140 
357.80 	0.0069302 	20974 
358.30 	0.0069302 	21140 
358.80 	0.0069302 	21140 
359.30 	0.0069302 	21140 
359.80 	0.0069302 	21140 
360.30 	0.0069302 	20974 
360.80 	0.0069302 	20974 
361.30 	0.0069302 	21140 
361.80 	0.0069302 	21140 
362.30 	0.0069302 	21306 
362.80 	0.0069302 	21140 
363.30 	0.0069302 	21140 
363.80 	0.0069302 	21140 
364.30 	0.0069302 	21140 
364.80 	0.0069302 	21306 
365.30 	0.0069302 	21140 
365.80 	0.0069302 	20974 
366.30 	0.0069302 	21140 
366.80 	0.0069302 	21140 
367.30 	0.0069302 	21140 
367.80 	0.0069302 	21306 
368.30 	0.0069302 	21140 
368.80 	0.0069302 	20974 
369.30 	0.0069302 	21140 
369.80 	0.0069302 	21140 
370.30 	0.0069302 	21140 
370.80 	0.0069302 	20974 
371.30 	0.0069302 	21140 
371.80 	0.0069302 	21140 
372.30 	0.0069302 	21140 
372.80 	0.0069302 	21306 
373.30 	0.0069302 	21140 
373.80 	0.0069302 	20974 
374.30 	0.0068236 	21140 
374.80 	0.0068236 	21140 
375.30 	0.0068236 	21306 
375.80 	0.0069302 	21140 
376.30 	0.0068236 	21140 
376.80 	0.0069302 	21140 
377.30 	0.0068236 	21306 
377.80 	0.0069302 	21140 
378.30 	0.0068236 	21140 
378.80 	0.0069302 	21140 
379.30 	0.0068236 	21140 
379.80 	0.0068236 	21140 
380.30 	0.0069302 	21140 
380.80 	0.0068236 	21306 
381.30 	0.0068236 	21140 
381.80 	0.0069302 	21140 
382.30 	0.0069302 	21140 
382.80 	0.0068236 	20974 
383.30 	0.0068236 	21140 
383.80 	0.0068236 	21306 
384.30 	0.0068236 	21140 
384.80 	0.0068236 	21140 
385.30 	0.0068236 	21140 
385.80 	0.0069302 	21140 
386.30 	0.0068236 	21306 
386.80 	0.0068236 	21306 
387.30 	0.0068236 	21140 
387.80 	0.0068236 	21140 
388.30 	0.0068236 	21140 
388.80 	0.0068236 	20974 
389.30 	0.0068236 	20974 
389.80 	0.0068236 	21140 
390.30 	0.0068236 	21140 
390.80 	0.0068236 	21140 
391.30 	0.0068236 	21140 
391.80 	0.0068236 	21140 
392.30 	0.0069302 	21140 
392.80 	0.0068236 	21140 
393.30 	0.0068236 	21140 
393.80 	0.0068236 	21140 
394.30 	0.0068236 	21140 
394.80 	0.0068236 	21140 
395.30 	0.0068236 	21140 
395.80 	0.0068236 	21140 
396.30 	0.0068236 	21140 
396.80 	0.0068236 	21140 
397.30 	0.0068236 	21140 
397.80 	0.0068236 	21140 
398.30 	0.0068236 	20974 
398.80 	0.0068236 	21140 
399.30 	0.0068236 	21140 
399.80 	0.0068236 	21140 
400.30 	0.0068236 	21306 
400.80 	0.0069302 	21140 
401.30 	0.0068236 	20974 
401.80 	0.0068236 	20974 
402.30 	0.0068236 	21140 
402.80 	0.0068236 	21140 
403.30 	0.0068236 	21140 
403.80 	0.0068236 	21140 
404.30 	0.0068236 	21140 
404.80 	0.0067169 	20474 
405.30 	0.0066103 	20141 
405.80 	0.0066103 	19808 
406.30 	0.0063971 	19309 
406.80 	0.0062905 	18976 
407.30 	0.0062905 	18810 
407.72 	0.0061839 	18144 
408.10 	0.0058640 	17478 
408.53 	0.0056508 	16812 
409.03 	0.0054375 	16313 
409.53 	0.0053309 	15813 
410.02 	0.0051177 	15148 
410.52 	0.0050111 	14815 
411.00 	0.0047978 	14149 
411.50 	0.0045846 	13816 
411.93 	0.0044780 	13150 
412.43 	0.0042647 	12817 
412.88 	0.0040515 	12151 
413.38 	0.0039449 	11652 
413.88 	0.0037316 	11486 
414.12 	0.0036250 	10820 
414.62 	0.0034118 	10487 
415.12 	0.0033052 	9987.4 
415.62 	0.0030919 	9654.5 
415.97 	0.0029853 	8988.7 
416.47 	0.0027721 	8655.8 
416.97 	0.0026655 	8322.8 
417.37 	0.0024522 	7657.0 
417.87 	0.0022390 	7324.1 
418.37 	0.0021324 	6824.7 
418.87 	0.0021324 	6658.3 
419.33 	0.0021324 	5992.4 
419.83 	0.0021324 	5659.5 
420.33 	0.0020257 	5493.1 
420.83 	0.0020257 	5160.2 
421.33 	0.0020257 	4827.2 
421.83 	0.0019191 	4494.3 
422.33 	0.0020257 	4327.9 
422.83 	0.0021324 	3995.0 
423.33 	0.0022390 	3662.0 
423.83 	0.0022390 	3662.0 
424.33 	0.0022390 	3828.5 
424.83 	0.0022390 	3662.0 
425.33 	0.0021324 	3662.0 
425.83 	0.0020257 	3162.7 
426.33 	0.0018125 	2663.3 
426.83 	0.0015993 	2163.9 
427.33 	0.0014927 	1831.0 
427.83 	0.0013860 	1664.6 
428.33 	0.0013860 	1498.1 
428.83 	0.0012794 	1498.1 
429.33 	0.0012794 	1331.7 
429.83 	0.0012794 	1331.7 
430.33 	0.0011728 	1331.7 
430.83 	0.0011728 	1331.7 
431.33 	0.0011728 	1165.2 
431.83 	0.0011728 	1165.2 
432.33 	0.0011728 	1165.2 
432.83 	0.0011728 	1165.2 
433.33 	0.0011728 	1165.2 
433.83 	0.0011728 	1165.2 
434.33 	0.0010662 	1165.2 
434.83 	0.0010662 	1165.2 
435.33 	0.0010662 	1165.2 
435.83 	0.0010662 	1165.2 
436.33 	0.0010662 	1165.2 
436.83 	0.0010662 	1331.7 
437.33 	0.0010662 	1165.2 
437.83 	0.0010662 	1165.2 
438.33 	0.0010662 	1165.2 
438.83 	0.0010662 	1165.2 
439.33 	0.0010662 	1331.7 
439.83 	0.0010662 	1165.2 
440.33 	0.0010662 	1165.2 
440.83 	0.0010662 	1165.2 
441.33 	0.00095956 	1165.2 
441.83 	0.0010662 	1165.2 
442.33 	0.00095956 	1165.2 
442.83 	0.0010662 	1331.7 
443.33 	0.00095956 	1165.2 
443.83 	0.00095956 	1165.2 
444.33 	0.00095956 	1165.2 
444.83 	0.00095956 	1165.2 
445.33 	0.00095956 	1165.2 
445.83 	0.00095956 	1165.2 
446.33 	0.00095956 	1165.2 
446.83 	0.00085294 	1165.2 
447.33 	0.00095956 	1165.2 
447.83 	0.00085294 	1331.7 
448.33 	0.00085294 	1165.2 
448.83 	0.00085294 	1165.2 
449.33 	0.00085294 	1165.2 
449.83 	0.00085294 	1165.2 
450.33 	0.00085294 	1165.2 
450.83 	0.00085294 	1165.2 
451.33 	0.00085294 	1165.2 
451.83 	0.00085294 	1165.2 
452.33 	0.00085294 	1165.2 
452.83 	0.00085294 	1165.2 
453.33 	0.00085294 	1165.2 
453.83 	0.00085294 	1165.2 
454.33 	0.00074633 	1165.2 
454.83 	0.00085294 	1165.2 
455.33 	0.00085294 	1165.2 
455.83 	0.00085294 	998.74 
456.33 	0.00085294 	1165.2 
456.83 	0.00085294 	1165.2 
457.33 	0.00085294 	1165.2 
457.83 	0.00074633 	1165.2 
458.33 	0.00085294 	1165.2 
458.83 	0.00085294 	1165.2 
459.33 	0.00085294 	1165.2 
459.83 	0.00074633 	1165.2 
460.33 	0.00074633 	1165.2 
460.83 	0.00085294 	1165.2 
461.33 	0.00074633 	1165.2 
461.83 	0.00074633 	1165.2 
462.33 	0.00074633 	1165.2 
462.83 	0.00074633 	1165.2 
463.33 	0.00074633 	1165.2 
463.83 	0.00074633 	1165.2 
464.33 	0.00085294 	1165.2 
464.83 	0.00074633 	1165.2 
465.33 	0.00074633 	1165.2 
465.83 	0.00074633 	1165.2 
466.33 	0.00074633 	998.74 
466.83 	0.00074633 	998.74 
467.33 	0.00074633 	1165.2 
467.83 	0.00074633 	1165.2 
468.33 	0.00074633 	1165.2 
468.83 	0.00074633 	1165.2 
469.33 	0.00074633 	1165.2 
469.83 	0.00063971 	1165.2 
470.33 	0.00074633 	1165.2 
470.83 	0.00063971 	1165.2 
471.33 	0.00063971 	1165.2 
471.83 	0.00074633 	998.74 
472.33 	0.00074633 	998.74 
472.83 	0.00074633 	1165.2 
473.33 	0.00063971 	1165.2 
473.83 	0.00063971 	1165.2 
474.33 	0.00063971 	1331.7 
474.83 	0.00063971 	1165.2 
475.33 	0.00063971 	1165.2 
475.83 	0.00063971 	1165.2 
476.33 	0.00063971 	1165.2 
476.83 	0.00074633 	1165.2 
477.33 	0.00063971 	1331.7 
477.83 	0.00063971 	1165.2 
478.33 	0.00063971 	1165.2 
478.83 	0.00063971 	1165.2 
479.33 	0.00063971 	1165.2 
479.83 	0.00063971 	1165.2 
480.33 	0.00063971 	1331.7 
480.83 	0.00063971 	1165.2 
481.33 	0.00053309 	1165.2 
481.83 	0.00063971 	1165.2 
482.33 	0.00063971 	1165.2 
482.83 	0.00063971 	1165.2 
483.33 	0.00063971 	1165.2 
483.83 	0.00063971 	1165.2 
484.33 	0.00053309 	1165.2 
484.83 	0.00063971 	1165.2 
485.33 	0.00053309 	1165.2 
485.83 	0.00053309 	1331.7 
486.33 	0.00063971 	1165.2 
486.72 	0.00063971 	1165.2 
487.22 	0.00053309 	1165.2 
487.72 	0.00053309 	1165.2 
488.22 	0.00053309 	1165.2 
488.72 	0.00063971 	1165.2 
489.22 	0.00053309 	1165.2 
489.72 	0.00053309 	1165.2 
490.22 	0.00053309 	1165.2 
490.72 	0.00053309 	1165.2 
491.22 	0.00053309 	1165.2 
491.72 	0.00053309 	1165.2 
492.22 	0.00053309 	1165.2 
492.72 	0.00053309 	1165.2 
493.22 	0.00053309 	1165.2 
493.72 	0.00053309 	1165.2 
494.22 	0.00053309 	1165.2 
494.72 	0.00053309 	1165.2 
495.22 	0.00053309 	1165.2 
495.72 	0.00053309 	1165.2 
496.22 	0.00053309 	1165.2 
496.72 	0.00053309 	1165.2 
497.22 	0.00053309 	1165.2 
497.72 	0.00053309 	1165.2 
498.22 	0.00053309 	1165.2 
498.72 	0.00053309 	1165.2 
499.22 	0.00053309 	1165.2 
499.72 	0.00053309 	1165.2 
500.22 	0.00053309 	1165.2 
500.72 	0.00053309 	1165.2 
501.22 	0.00053309 	1165.2 
501.72 	0.00053309 	1165.2 
502.22 	0.00053309 	1165.2 
502.72 	0.00053309 	1165.2 
503.22 	0.00053309 	1165.2 
503.72 	0.00053309 	1165.2 
504.22 	0.00053309 	1165.2 
504.72 	0.00053309 	1165.2 
505.22 	0.00053309 	1165.2 
505.72 	0.00053309 	1165.2 
506.22 	0.00053309 	1165.2 
506.72 	0.00053309 	1165.2 
507.22 	0.00042647 	1165.2 
507.72 	0.00053309 	1165.2 
508.22 	0.00053309 	1165.2 
508.72 	0.00053309 	1165.2 
509.22 	0.00053309 	1165.2 
509.72 	0.00053309 	1165.2 
510.22 	0.00053309 	1165.2 
510.72 	0.00053309 	1331.7 
511.22 	0.00053309 	1165.2 
511.72 	0.00053309 	1165.2 
512.22 	0.00053309 	998.74 
512.72 	0.00053309 	1165.2 
513.22 	0.00042647 	1165.2 
513.72 	0.00053309 	1165.2 
514.22 	0.00053309 	1165.2 
514.72 	0.00053309 	1165.2 
515.22 	0.00053309 	1165.2 
515.72 	0.00053309 	1331.7 
516.22 	0.00053309 	1165.2 
516.72 	0.00053309 	1165.2 
517.22 	0.00042647 	1165.2 
517.72 	0.00053309 	1165.2 
518.22 	0.00053309 	1165.2 
518.72 	0.00053309 	1498.1 
519.22 	0.00063971 	1831.0 
519.72 	0.00074633 	2163.9 
520.22 	0.00085294 	2663.3 
520.72 	0.0010662 	3162.7 
521.20 	0.0011728 	3828.5 
521.70 	0.0012794 	4161.4 
522.20 	0.0013860 	4494.3 
522.70 	0.0013860 	4660.8 
523.20 	0.0017059 	4993.7 
523.70 	0.0019191 	5659.5 
524.20 	0.0021324 	5992.4 
524.70 	0.0022390 	6325.4 
525.20 	0.0024522 	6658.3 
525.70 	0.0026655 	6491.8 
526.20 	0.0028787 	6991.2 
526.70 	0.0031985 	7490.6 
527.10 	0.0034118 	8156.4 
527.43 	0.0038383 	8655.8 
527.70 	0.0040515 	9321.6 
528.02 	0.0044780 	9820.9 
528.48 	0.0047978 	10487 
528.78 	0.0051177 	11153 
529.27 	0.0055441 	11818 
529.68 	0.0057574 	12484 
530.13 	0.0059706 	13150 
530.63 	0.0062905 	13816 
531.13 	0.0063971 	14482 
531.63 	0.0066103 	14815 
532.03 	0.0068236 	15480 
532.53 	0.0069302 	15980 
533.03 	0.0071434 	16479 
533.53 	0.0072500 	16979 
534.03 	0.0073566 	17312 
534.53 	0.0074633 	17644 
535.03 	0.0076765 	18144 
535.33 	0.0077831 	18810 
535.82 	0.0079964 	19475 
536.32 	0.0082096 	20141 
536.82 	0.0083162 	20474 
537.32 	0.0085294 	20807 
537.82 	0.0085294 	20974 
538.32 	0.0085294 	21140 
538.82 	0.0085294 	21140 
539.32 	0.0085294 	21140 
539.82 	0.0085294 	21140 
540.32 	0.0085294 	21140 
540.82 	0.0085294 	20974 
541.32 	0.0084228 	20974 
541.82 	0.0085294 	21140 
542.32 	0.0085294 	21140 
542.82 	0.0085294 	21140 
543.32 	0.0085294 	21140 
543.82 	0.0085294 	21140 
544.32 	0.0085294 	21306 
544.82 	0.0084228 	21140 
545.32 	0.0085294 	21140 
545.82 	0.0084228 	20974 
546.32 	0.0084228 	21140 
546.82 	0.0084228 	21140 
547.32 	0.0085294 	21140 
547.82 	0.0084228 	21140 
548.32 	0.0085294 	20974 
548.82 	0.0085294 	21140 
549.32 	0.0085294 	21306 
549.82 	0.0084228 	21140 
550.32 	0.0085294 	20974 
550.82 	0.0085294 	20974 
551.32 	0.0084228 	21140 
551.82 	0.0084228 	21306 
552.32 	0.0084228 	21306 
552.82 	0.0084228 	21140 
553.32 	0.0084228 	21140 
553.82 	0.0084228 	21140 
554.32 	0.0084228 	21306 
554.82 	0.0084228 	21306 
555.32 	0.0084228 	21140 
555.82 	0.0084228 	21140 
556.32 	0.0084228 	20974 
556.82 	0.0084228 	21140 
557.32 	0.0084228 	21306 
557.82 	0.0084228 	21306 
558.32 	0.0084228 	21140 
558.82 	0.0084228 	20974 
559.32 	0.0084228 	20974 
559.82 	0.0084228 	21140 
560.32 	0.0084228 	21306 
560.82 	0.0084228 	21140 
561.32 	0.0084228 	21140 
561.82 	0.0084228 	21140 
562.32 	0.0083162 	21140 
562.82 	0.0083162 	21140 
563.32 	0.0084228 	21140 
563.82 	0.0084228 	21140 
564.32 	0.0084228 	21306 
564.82 	0.0084228 	21140 
565.32 	0.0083162 	20974 
565.82 	0.0083162 	21140 
566.32 	0.0084228 	21140 
566.82 	0.0083162 	21140 
567.32 	0.0083162 	21140 
567.82 	0.0083162 	21140 
568.32 	0.0083162 	21140 
568.82 	0.0083162 	21140 
569.32 	0.0083162 	21140 
569.82 	0.0084228 	21140 
570.32 	0.0083162 	21140 
570.82 	0.0084228 	21140 
571.32 	0.0083162 	20974 
571.82 	0.0083162 	21140 
572.32 	0.0083162 	21306 
572.82 	0.0083162 	21140 
573.32 	0.0083162 	21140 
573.82 	0.0083162 	20974 
574.32 	0.0083162 	21140 
574.82 	0.0083162 	21140 
575.32 	0.0083162 	21140 
575.82 	0.0083162 	21140 
576.32 	0.0083162 	21140 
576.82 	0.0083162 	21140 
577.32 	0.0083162 	21140 
577.82 	0.0083162 	21306 
578.32 	0.0083162 	21140 
578.82 	0.0083162 	21140 
579.32 	0.0083162 	21140 
579.82 	0.0083162 	20974 
580.32 	0.0083162 	21140 
580.82 	0.0083162 	21306 
581.32 	0.0083162 	21140 
581.82 	0.0082096 	21140 
582.32 	0.0083162 	21140 
582.82 	0.0083162 	21140 
583.32 	0.0083162 	21306 
583.82 	0.0083162 	21306 
584.32 	0.0083162 	21140 
584.82 	0.0083162 	21140 
585.32 	0.0082096 	21140 
585.82 	0.0083162 	21140 
586.32 	0.0083162 	21140 
586.82 	0.0083162 	21140 
587.32 	0.0082096 	20974 
587.82 	0.0083162 	21140 
588.32 	0.0083162 	21140 
588.82 	0.0083162 	21140 
589.32 	0.0083162 	21140 
589.82 	0.0083162 	21140 
590.32 	0.0083162 	21140 
590.82 	0.0083162 	21140 
591.32 	0.0083162 	21140 
591.82 	0.0083162 	21140 
592.32 	0.0083162 	20974 
592.82 	0.0082096 	21140 
593.32 	0.0082096 	21140 
593.82 	0.0083162 	21306 
594.32 	0.0083162 	21306 
594.82 	0.0083162 	21140 
595.32 	0.0082096 	21140 
595.82 	0.0082096 	20974 
596.32 	0.0082096 	21140 
596.82 	0.0083162 	21140 
597.02 	0.0082096 	21306 
597.52 	0.0082096 	21306 
598.02 	0.0082096 	20974 
598.52 	0.0082096 	21140 
599.02 	0.0082096 	21140 
599.52 	0.0082096 	21306 
600.02 	0.0083162 	21140 
600.52 	0.0082096 	21140 
601.02 	0.0082096 	21140 
601.52 	0.0082096 	21140 
602.02 	0.0083162 	21140 
602.52 	0.0082096 	21306 
603.02 	0.0083162 	21306 
603.52 	0.0083162 	21140 
604.02 	0.0082096 	21140 
604.52 	0.0082096 	21140 
605.02 	0.0083162 	21140 
605.52 	0.0082096 	21306 
606.02 	0.0083162 	21306 
606.52 	0.0082096 	21140 
607.02 	0.0082096 	20974 
607.52 	0.0082096 	20974 
608.02 	0.0082096 	21140 
608.52 	0.0082096 	21140 
609.02 	0.0082096 	21140 
609.52 	0.0083162 	21140 
610.02 	0.0082096 	21140 
610.52 	0.0083162 	21140 
611.02 	0.0082096 	21140 
611.52 	0.0082096 	21140 
612.02 	0.0082096 	21140 
612.52 	0.0082096 	21140 
613.02 	0.0082096 	21140 
613.52 	0.0082096 	21140 
614.02 	0.0082096 	21140 
614.52 	0.0082096 	21140 
615.02 	0.0082096 	21140 
615.52 	0.0083162 	21140 
616.02 	0.0082096 	21306 
616.52 	0.0082096 	21140 
617.02 	0.0082096 	21140 
617.52 	0.0082096 	21140 
618.02 	0.0082096 	20974 
618.52 	0.0082096 	21140 
619.02 	0.0082096 	21140 
619.52 	0.0082096 	21140 
620.02 	0.0082096 	21140 
620.52 	0.0081030 	21140 
621.02 	0.0082096 	21306 
621.52 	0.0082096 	21306 
622.02 	0.0081030 	21306 
622.52 	0.0082096 	20974 
623.02 	0.0082096 	20974 
623.52 	0.0081030 	20974 
624.02 	0.0081030 	21140 
624.52 	0.0082096 	21306 
625.02 	0.0082096 	21140 
625.52 	0.0081030 	21140 
626.02 	0.0082096 	21140 
626.52 	0.0082096 	21306 
627.00 	0.0081030 	21306 
627.50 	0.0081030 	21140 
628.00 	0.0081030 	20974 
628.50 	0.0081030 	20974 
629.00 	0.0081030 	21140 
629.50 	0.0081030 	21140 
630.00 	0.0081030 	21140 
630.50 	0.0081030 	20974 
631.00 	0.0081030 	21140 
631.50 	0.0081030 	21140 
632.00 	0.0081030 	21306 
632.50 	0.0081030 	21306 
633.00 	0.0081030 	21140 
633.50 	0.0081030 	20974 
634.00 	0.0081030 	20974 
634.50 	0.0081030 	21140 
635.00 	0.0081030 	21306 
635.50 	0.0081030 	21306 
636.00 	0.0081030 	21140 
636.50 	0.0081030 	21140 
637.00 	0.0081030 	20974 
637.50 	0.0081030 	21140 
638.00 	0.0081030 	21306 
638.50 	0.0081030 	21306 
639.00 	0.0081030 	21306 
639.50 	0.0081030 	20974 
640.00 	0.0081030 	20974 
640.50 	0.0081030 	21140 
641.00 	0.0081030 	21306 
641.50 	0.0081030 	21306 
642.00 	0.0081030 	21140 
642.50 	0.0081030 	21140 
643.00 	0.0081030 	20974 
643.50 	0.0081030 	21140 
644.00 	0.0081030 	21140 
644.50 	0.0081030 	21140 
645.00 	0.0081030 	21140 
645.50 	0.0081030 	20974 
646.00 	0.0081030 	21140 
646.50 	0.0081030 	21140 
647.00 	0.0081030 	21140 
647.50 	0.0081030 	21140 
648.00 	0.0081030 	21140 
648.50 	0.0081030 	21140 
649.00 	0.0081030 	21140 
649.50 	0.0081030 	21140 
650.00 	0.0081030 	21140 
650.50 	0.0081030 	20974 
651.00 	0.0081030 	20974 
651.50 	0.0081030 	21140 
652.00 	0.0081030 	21140 
652.50 	0.0081030 	21306 
653.00 	0.0081030 	21140 
653.50 	0.0081030 	20974 
654.00 	0.0081030 	20974 
654.50 	0.0081030 	21140 
655.00 	0.0081030 	21306 
655.50 	0.0081030 	21306 
656.00 	0.0081030 	21306 
656.50 	0.0081030 	21140 
657.00 	0.0081030 	21140 
657.50 	0.0081030 	21140 
658.00 	0.0081030 	21140 
658.50 	0.0081030 	21140 
659.00 	0.0081030 	21140 
659.50 	0.0081030 	21140 
660.00 	0.0081030 	21140 
660.50 	0.0081030 	21140 
661.00 	0.0081030 	21140 
661.50 	0.0081030 	21140 
662.00 	0.0081030 	20974 
662.50 	0.0081030 	21140 
663.00 	0.0081030 	21140 
663.50 	0.0081030 	21140 
664.00 	0.0081030 	21140 
664.50 	0.0081030 	21140 
665.00 	0.0081030 	21140 
665.50 	0.0081030 	21140 
666.00 	0.0081030 	21140 
666.50 	0.0081030 	21140 
667.00 	0.0081030 	21306 
667.50 	0.0081030 	21306 
668.00 	0.0081030 	21140 
668.50 	0.0081030 	21140 
669.00 	0.0081030 	21140 
669.50 	0.0081030 	21140 
670.00 	0.0081030 	21140 
670.50 	0.0081030 	20974 
671.00 	0.0081030 	21140 
671.50 	0.0081030 	21140 
672.00 	0.0081030 	21306 
672.50 	0.0081030 	21140 
673.00 	0.0081030 	21140 
673.50 	0.0081030 	21140 
674.00 	0.0081030 	21140 
674.50 	0.0081030 	21140 
675.00 	0.0081030 	21140 
675.50 	0.0081030 	21140 
676.00 	0.0081030 	21140 
676.50 	0.0081030 	21140 
677.00 	0.0081030 	21306 
677.50 	0.0081030 	21140 
678.00 	0.0081030 	21140 
678.50 	0.0081030 	21140 
679.00 	0.0081030 	21140 
679.50 	0.0081030 	21140 
680.00 	0.0081030 	21140 
680.50 	0.0081030 	21140 
681.00 	0.0081030 	20974 
681.50 	0.0081030 	21140 
682.00 	0.0081030 	21140 
682.50 	0.0081030 	21140 
683.00 	0.0081030 	21140 
683.50 	0.0081030 	21140 
684.00 	0.0081030 	21140 
684.50 	0.0081030 	21140 
685.00 	0.0081030 	21140 
685.50 	0.0081030 	20974 
686.00 	0.0081030 	21140 
686.50 	0.0081030 	21140 
687.00 	0.0081030 	21140 
687.50 	0.0081030 	21140 
688.00 	0.0081030 	20974 
688.50 	0.0081030 	21140 
689.00 	0.0081030 	21140 
689.50 	0.0081030 	21140 
690.00 	0.0081030 	21140 
690.50 	0.0081030 	21140 
691.00 	0.0081030 	20974 
691.50 	0.0081030 	20974 
692.00 	0.0081030 	21140 
692.50 	0.0081030 	21306 
693.00 	0.0081030 	21306 
693.50 	0.0081030 	21140 
694.00 	0.0081030 	20974 
694.50 	0.0081030 	20974 
695.00 	0.0081030 	21140 
695.50 	0.0081030 	21306 
696.00 	0.0081030 	21306 
696.50 	0.0081030 	21140 
697.00 	0.0081030 	20974 
697.50 	0.0081030 	20974 
698.00 	0.0081030 	21140 
698.50 	0.0081030 	21306 
699.00 	0.0081030 	21140 
699.50 	0.0081030 	21140 
700.00 	0.0081030 	21140 
700.50 	0.0081030 	21140 
701.00 	0.0081030 	21306 
701.50 	0.0081030 	21306 
702.00 	0.0081030 	21306 
702.50 	0.0081030 	21140 
703.00 	0.0081030 	20974 
703.50 	0.0081030 	21140 
704.00 	0.0081030 	21140 
704.50 	0.0081030 	21140 
705.00 	0.0081030 	21140 
705.50 	0.0081030 	20974 
706.00 	0.0081030 	21140 
706.50 	0.0081030 	21306 
707.00 	0.0081030 	21140 
707.50 	0.0081030 	21140 
708.00 	0.0081030 	21140 
708.50 	0.0081030 	21140 
709.00 	0.0081030 	21140 
709.50 	0.0081030 	21140 
710.00 	0.0081030 	21140 
710.50 	0.0081030 	21140 
711.00 	0.0081030 	21140 
711.50 	0.0081030 	21140 
712.00 	0.0081030 	21140 
712.50 	0.0081030 	21140 
713.00 	0.0081030 	21140 
713.50 	0.0081030 	21140 
714.00 	0.0081030 	21140 
714.50 	0.0081030 	21140 
715.00 	0.0081030 	21140 
715.50 	0.0081030 	21140 
716.00 	0.0081030 	21140 
716.50 	0.0081030 	21140 
717.00 	0.0081030 	21140 
717.50 	0.0081030 	21140 
718.00 	0.0081030 	21140 
718.50 	0.0081030 	21140 
719.00 	0.0081030 	20974 
719.50 	0.0081030 	20974 
720.00 	0.0081030 	21140 
720.50 	0.0081030 	21306 
721.00 	0.0081030 	21140 
721.50 	0.0081030 	21140 
722.00 	0.0081030 	20974 
722.50 	0.0081030 	21140 
723.00 	0.0081030 	21140 
723.50 	0.0081030 	21306 
724.00 	0.0081030 	21140 
724.50 	0.0081030 	21140 
725.00 	0.0081030 	21140 
725.50 	0.0081030 	21140 
726.00 	0.0081030 	21306 
726.50 	0.0081030 	21140 
727.00 	0.0081030 	21140 
727.50 	0.0081030 	21140 
728.00 	0.0081030 	21140 
728.50 	0.0081030 	21473 
729.00 	0.0081030 	21806 
729.50 	0.0081030 	22305 
730.00 	0.0081030 	22805 
730.50 	0.0081030 	23304 
731.00 	0.0081030 	23637 
731.50 	0.0081030 	24136 
732.00 	0.0081030 	24636 
732.40 	0.0081030 	25301 
732.90 	0.0081030 	25801 
733.40 	0.0081030 	26300 
733.90 	0.0081030 	26800 
734.40 	0.0081030 	27299 
734.90 	0.0081030 	27798 
735.37 	0.0081030 	28464 
735.87 	0.0081030 	28963 
736.37 	0.0081030 	29463 
736.87 	0.0081030 	29962 
737.37 	0.0081030 	30295 
737.87 	0.0081030 	30628 
738.37 	0.0081030 	31127 
738.87 	0.0081030 	31627 
739.37 	0.0081030 	32126 
739.80 	0.0081030 	32792 
740.30 	0.0081030 	33125 
740.80 	0.0081030 	33624 
741.30 	0.0081030 	33791 
741.50 	0.0081030 	34457 
741.87 	0.0081030 	35122 
742.28 	0.0081030 	35788 
742.78 	0.0081030 	36288 
743.27 	0.0081030 	36953 
743.77 	0.0081030 	37453 
744.27 	0.0081030 	37952 
744.77 	0.0081030 	38452 
745.27 	0.0081030 	38951 
745.70 	0.0081030 	39617 
746.20 	0.0081030 	40116 
746.70 	0.0081030 	40615 
747.20 	0.0081030 	41115 
747.70 	0.0081030 	41614 
748.20 	0.0081030 	42280 
748.70 	0.0081030 	42779 
749.20 	0.0081030 	43112 
749.63 	0.0081030 	43778 
750.13 	0.0081030 	44278 
750.63 	0.0081030 	44610 
751.03 	0.0081030 	45276 
751.53 	0.0081030 	45609 
752.02 	0.0081030 	46275 
752.52 	0.0081030 	46774 
753.02 	0.0081030 	47274 
753.52 	0.0081030 	47773 
754.02 	0.0081030 	48439 
754.52 	0.0081030 	48938 
755.02 	0.0081030 	49271 
755.42 	0.0081030 	49937 
755.92 	0.0081030 	50270 
756.35 	0.0081030 	50936 
756.85 	0.0081030 	51435 
757.35 	0.0081030 	51935 
757.85 	0.0081030 	52434 
758.35 	0.0081030 	53100 
758.85 	0.0081030 	53599 
759.35 	0.0081030 	54098 
759.85 	0.0081030 	54598 
760.35 	0.0081030 	55097 
760.85 	0.0081030 	55597 
761.35 	0.0081030 	56096 
761.85 	0.0081030 	56762 
762.35 	0.0081030 	57261 
762.85 	0.0081030 	57761 
763.35 	0.0081030 	58260 
763.85 	0.0081030 	58759 
764.33 	0.0081030 	59425 
764.83 	0.0081030 	59924 
765.33 	0.0081030 	60424 
765.83 	0.0081030 	60923 
766.33 	0.0081030 	61423 
766.83 	0.0081030 	61922 
767.32 	0.0081030 	62588 
767.82 	0.0081030 	63087 
768.32 	0.0081030 	63586 
768.82 	0.0081030 	64086 
769.32 	0.0081030 	64752 
769.82 	0.0081030 	65251 
770.32 	0.0081030 	65750 
770.82 	0.0081030 	66250 
771.30 	0.0081030 	66916 
771.80 	0.0081030 	67249 
772.28 	0.0081030 	67914 
772.78 	0.0081030 	68414 
773.28 	0.0081030 	68747 
773.77 	0.0081030 	69412 
774.27 	0.0081030 	69912 
774.77 	0.0081030 	70411 
775.27 	0.0081030 	70911 
775.77 	0.0081030 	71576 
776.27 	0.0081030 	71909 
776.72 	0.0081030 	72575 
777.22 	0.0081030 	73075 
777.72 	0.0081030 	73574 
778.22 	0.0081030 	74073 
778.72 	0.0081030 	74739 
779.22 	0.0081030 	75072 
779.63 	0.0081030 	75738 
780.13 	0.0081030 	76237 
780.63 	0.0081030 	76737 
781.13 	0.0081030 	77069 
781.55 	0.0081030 	77735 
782.05 	0.0081030 	78235 
782.55 	0.0081030 	78568 
782.90 	0.0081030 	79233 
783.40 	0.0081030 	79733 
783.90 	0.0081030 	80066 
784.37 	0.0081030 	80732 
784.87 	0.0081030 	81231 
785.37 	0.0081030 	81730 
785.87 	0.0081030 	82230 
786.37 	0.0081030 	82729 
786.87 	0.0081030 	83395 
787.37 	0.0081030 	83894 
787.87 	0.0081030 	84394 
788.37 	0.0081030 	84893 
788.87 	0.0081030 	85559 
789.37 	0.0081030 	85892 
789.83 	0.0081030 	86558 
790.33 	0.0081030 	87057 
790.83 	0.0081030 	87390 
791.22 	0.0081030 	88056 
791.72 	0.0081030 	88555 
792.22 	0.0081030 	88888 
792.65 	0.0081030 	89554 
793.15 	0.0081030 	89887 
793.65 	0.0081030 	90552 
794.15 	0.0081030 	91052 
794.65 	0.0081030 	91551 
795.15 	0.0081030 	92051 
795.63 	0.0081030 	92716 
796.13 	0.0081030 	93216 
796.63 	0.0081030 	93715 
797.13 	0.0081030 	94215 
797.63 	0.0081030 	94714 
798.12 	0.0081030 	95380 
798.62 	0.0081030 	95713 
799.10 	0.0081030 	96378 
799.60 	0.0081030 	96878 
800.10 	0.0081030 	97377 
800.60 	0.0081030 	97877 
801.10 	0.0081030 	98376 
801.60 	0.0081030 	98875 
801.98 	0.0081030 	99541 
802.48 	0.0081030 	99874 
802.98 	0.0081030 	100370 
803.48 	0.0081030 	101040 
803.98 	0.0081030 	101370 
804.37 	0.0081030 	102040 
804.87 	0.0081030 	102370 
805.32 	0.0081030 	103040 
805.82 	0.0081030 	103540 
806.32 	0.0081030 	103870 
806.75 	0.0081030 	104530 
807.25 	0.0081030 	104870 
807.75 	0.0081030 	105370 
808.20 	0.0081030 	106030 
808.70 	0.0081030 	106530 
809.20 	0.0081030 	107030 
809.70 	0.0081030 	107530 
810.20 	0.0081030 	108030 
810.70 	0.0081030 	108530 
811.15 	0.0081030 	109200 
811.65 	0.0081030 	109530 
812.12 	0.0081030 	110190 
812.62 	0.0081030 	110690 
813.12 	0.0081030 	111190 
813.62 	0.0081030 	111860 
814.12 	0.0081030 	112190 
814.57 	0.0081030 	112860 
815.07 	0.0081030 	113190 
815.48 	0.0081030 	113860 
815.98 	0.0081030 	114190 
816.48 	0.0081030 	114690 
816.93 	0.0081030 	115350 
817.43 	0.0081030 	115690 
817.88 	0.0081030 	116350 
818.38 	0.0081030 	116690 
818.85 	0.0081030 	117350 
819.35 	0.0081030 	117680 
819.75 	0.0081030 	118350 
820.25 	0.0081030 	118850 
820.75 	0.0081030 	119180 
821.22 	0.0081030 	119850 
821.72 	0.0081030 	120350 
822.22 	0.0081030 	120850 
822.72 	0.0081030 	121350 
823.20 	0.0081030 	122010 
823.70 	0.0081030 	122510 
824.20 	0.0081030 	123010 
824.70 	0.0081030 	123510 
825.20 	0.0081030 	124010 
825.70 	0.0081030 	124510 
826.20 	0.0081030 	125010 
826.68 	0.0081030 	125670 
827.18 	0.0081030 	126170 
827.68 	0.0081030 	126670 
828.18 	0.0081030 	127170 
828.67 	0.0081030 	127840 
829.17 	0.0081030 	128170 
829.67 	0.0081030 	128840 
830.17 	0.0081030 	129340 
830.67 	0.0081030 	129840 
831.17 	0.0081030 	130340 
831.67 	0.0081030 	131000 
832.17 	0.0081030 	131330 
832.67 	0.0081030 	131830 
833.17 	0.0081030 	132500 
833.67 	0.0081030 	133000 
834.17 	0.0081030 	133500 
834.67 	0.0081030 	134000 
835.17 	0.0081030 	134660 
835.67 	0.0081030 	135160 
836.17 	0.0081030 	135660 
836.67 	0.0081030 	136160 
837.17 	0.0081030 	136660 
837.67 	0.0081030 	137330 
838.17 	0.0081030 	137830 
838.67 	0.0081030 	138330 
839.17 	0.0081030 	138820 
839.67 	0.0081030 	139490 
840.17 	0.0081030 	139820 
840.67 	0.0081030 	140490 
841.17 	0.0081030 	140990 
841.67 	0.0081030 	141490 
842.17 	0.0081030 	142150 
842.67 	0.0081030 	142650 
843.17 	0.0081030 	143150 
843.67 	0.0081030 	143650 
844.17 	0.0081030 	144150 
844.67 	0.0081030 	144820 
845.17 	0.0081030 	145150 
845.67 	0.0081030 	145650 
846.17 	0.0081030 	146150 
846.67 	0.0081030 	146810 
847.17 	0.0081030 	147310 
847.67 	0.0081030 	147810 
848.17 	0.0081030 	148310 
848.67 	0.0081030 	148980 
849.17 	0.0081030 	149480 
849.67 	0.0081030 	149980 
850.17 	0.0081030 	150480 
850.67 	0.0081030 	150980 
851.17 	0.0081030 	151640 
851.67 	0.0081030 	152140 
852.17 	0.0081030 	152640 
852.67 	0.0081030 	153140 
853.17 	0.0081030 	153640 
853.67 	0.0081030 	154310 
854.17 	0.0081030 	154800 
854.67 	0.0081030 	155300 
855.17 	0.0081030 	155470 
855.67 	0.0081030 	156140 
856.17 	0.0081030 	156640 
856.67 	0.0081030 	157300 
857.17 	0.0081030 	157970 
857.67 	0.0081030 	158470 
858.17 	0.0081030 	158970 
858.67 	0.0081030 	159470 
859.17 	0.0081030 	160130 
859.67 	0.0081030 	160630 
860.17 	0.0081030 	161300 
860.67 	0.0081030 	161630 
861.17 	0.0081030 	162130 
861.67 	0.0081030 	162960 
862.17 	0.0081030 	163290 
862.67 	0.0081030 	163790 
863.17 	0.0081030 	164290 
863.67 	0.0081030 	164790 
864.17 	0.0081030 	165460 
864.67 	0.0081030 	165960 
865.17 	0.0081030 	166460 
865.67 	0.0081030 	167120 
866.17 	0.0081030 	167620 
866.67 	0.0081030 	167950 
867.17 	0.0081030 	168620 
867.67 	0.0081030 	169120 
868.17 	0.0081030 	169620 
868.67 	0.0081030 	170120 
869.17 	0.0081030 	170780 
869.67 	0.0081030 	171280 
870.17 	0.0081030 	171780 
870.67 	0.0081030 	172450 
871.17 	0.0081030 	172780 
871.67 	0.0081030 	173450 
872.17 	0.0081030 	173950 
872.67 	0.0081030 	174450 
873.17 	0.0081030 	174950 
873.67 	0.0081030 	175450 
874.17 	0.0081030 	175940 
874.67 	0.0081030 	176610 
875.17 	0.0081030 	177110 
875.67 	0.0081030 	177610 
876.17 	0.0081030 	178110 
876.67 	0.0081030 	178610 
877.17 	0.0081030 	179110 
877.67 	0.0081030 	179770 
878.17 	0.0081030 	180270 
878.67 	0.0081030 	180770 
879.17 	0.0081030 	181270 
879.67 	0.0081030 	181940 
880.17 	0.0081030 	182440 
880.67 	0.0081030 	182940 
881.17 	0.0081030 	183440 
881.67 	0.0081030 	183930 
882.17 	0.0081030 	184430 
882.67 	0.0081030 	185100 
883.17 	0.0081030 	185600 
883.67 	0.0081030 	186100 
884.17 	0.0081030 	186600 
884.67 	0.0081030 	187260 
885.17 	0.0081030 	187760 
885.67 	0.0081030 	188260 
886.17 	0.0081030 	188760 
886.67 	0.0081030 	189430 
886.95 	0.0081030 	187100 
886.97 	0.0081030 	185100 
887.05 	0.0081030 	186600 
887.20 	0.0081030 	187930 
887.40 	0.0081030 	189260 
887.90 	0.0081030 	190430 
888.40 	0.0081030 	190930 
888.90 	0.0081030 	191590 
889.40 	0.0081030 	192090 
889.90 	0.0081030 	192590 
890.40 	0.0081030 	193090 
890.90 	0.0081030 	193590 
891.40 	0.0081030 	194260 
891.90 	0.0081030 	194750 
892.40 	0.0081030 	195250 
892.90 	0.0081030 	195920 
893.40 	0.0081030 	196250 
893.90 	0.0081030 	196750 
894.40 	0.0081030 	197420 
894.90 	0.0081030 	197920 
895.40 	0.0081030 	198420 
895.90 	0.0081030 	199080 
896.40 	0.0081030 	199580 
896.90 	0.0081030 	200080 
897.40 	0.0081030 	200580 
897.90 	0.0081030 	201250 
898.40 	0.0081030 	201750 
898.90 	0.0081030 	202240 
899.40 	0.0081030 	202740 
899.90 	0.0081030 	203240 
900.40 	0.0081030 	203910 
900.90 	0.0081030 	204240 
901.40 	0.0081030 	204910 
901.90 	0.0081030 	205410 
902.17 	0.0081030 	203240 
902.18 	0.0081030 	200080 
902.28 	0.0081030 	201410 
902.42 	0.0081030 	202740 
902.55 	0.0081030 	204080 
902.80 	0.0081030 	205410 
903.30 	0.0081030 	206410 
903.80 	0.0081030 	207070 
904.30 	0.0081030 	207740 
904.80 	0.0081030 	208240 
905.30 	0.0081030 	208900 
905.80 	0.0081030 	209400 
906.30 	0.0081030 	209900 
906.80 	0.0081030 	210230 
907.30 	0.0081030 	210900 
907.80 	0.0081030 	211570 
908.30 	0.0081030 	212070 
908.80 	0.0081030 	212730 
909.30 	0.0081030 	213230 
909.80 	0.0081030 	213730 
910.30 	0.0081030 	214230 
910.80 	0.0081030 	214730 
911.30 	0.0081030 	215230 
911.80 	0.0081030 	215730 
912.30 	0.0081030 	216230 
912.80 	0.0081030 	216890 
913.30 	0.0081030 	217390 
913.80 	0.0081030 	218060 
914.30 	0.0081030 	218560 
914.80 	0.0081030 	219060 
915.30 	0.0081030 	219390 
915.80 	0.0081030 	220060 
916.30 	0.0081030 	220390 
916.80 	0.0081030 	220890 
917.30 	0.0081030 	221550 
917.80 	0.0081030 	222050 
918.30 	0.0081030 	222720 
918.80 	0.0081030 	223220 
919.30 	0.0081030 	223720 
919.80 	0.0081030 	224380 
920.30 	0.0081030 	224880 
920.80 	0.0081030 	225380 
921.30 	0.0081030 	226050 
921.80 	0.0081030 	226380 
922.30 	0.0081030 	227050 
922.80 	0.0081030 	227550 
923.30 	0.0081030 	228210 
923.80 	0.0081030 	228710 
924.30 	0.0081030 	229210 
924.80 	0.0081030 	229540 
925.30 	0.0081030 	230210 
925.72 	0.0081030 	228210 
925.73 	0.0081030 	225550 
925.75 	0.0081030 	222390 
926.25 	0.0081030 	223380 
926.42 	0.0081030 	219220 
926.43 	0.0081030 	216730 
926.48 	0.0081030 	213060 
926.50 	0.0081030 	199580 
926.52 	0.0081030 	126670 
