Tempo(s)	Deformação(mm)	Força(N)
0.016667 	0.00000 	0.00000 
0.51667 	0.00000 	166.46 
1.0167 	0.00010662 	166.46 
1.5167 	0.00010662 	499.37 
2.0167 	0.00021324 	832.28 
2.5167 	0.00031985 	998.74 
2.9333 	0.00053309 	1664.6 
3.4333 	0.00063971 	1997.5 
3.8500 	0.00085294 	2663.3 
4.3500 	0.00095956 	3162.7 
4.8167 	0.0010662 	3828.5 
5.3167 	0.0012794 	4161.4 
5.6500 	0.0013860 	4827.2 
6.1500 	0.0015993 	5326.6 
6.6000 	0.0018125 	5992.4 
7.1000 	0.0018125 	6658.3 
7.6000 	0.0020257 	7157.6 
8.1000 	0.0022390 	7490.6 
8.4667 	0.0023456 	8156.4 
8.9667 	0.0025588 	8655.8 
9.4667 	0.0026655 	9155.1 
9.9667 	0.0027721 	9654.5 
10.450 	0.0028787 	10320 
10.950 	0.0030919 	10820 
11.450 	0.0030919 	11153 
11.950 	0.0031985 	11652 
12.450 	0.0034118 	11818 
12.950 	0.0035184 	12318 
13.417 	0.0036250 	12984 
13.750 	0.0038383 	13649 
14.250 	0.0040515 	14149 
14.717 	0.0040515 	14815 
15.217 	0.0042647 	15314 
15.683 	0.0043713 	15980 
16.183 	0.0045846 	16479 
16.683 	0.0046912 	16812 
17.183 	0.0047978 	17312 
17.683 	0.0050111 	17644 
18.133 	0.0050111 	18310 
18.617 	0.0053309 	18976 
19.117 	0.0053309 	19475 
19.617 	0.0055441 	19975 
20.117 	0.0057574 	20474 
20.567 	0.0058640 	21140 
21.067 	0.0060772 	21473 
21.567 	0.0060772 	22139 
22.067 	0.0062905 	22638 
22.567 	0.0062905 	22971 
23.067 	0.0062905 	23137 
23.567 	0.0063971 	23137 
24.067 	0.0063971 	23137 
24.567 	0.0063971 	23137 
25.067 	0.0063971 	23137 
25.567 	0.0063971 	23137 
26.067 	0.0063971 	23137 
26.567 	0.0063971 	23137 
27.067 	0.0062905 	23137 
27.567 	0.0062905 	23137 
28.067 	0.0063971 	23137 
28.567 	0.0063971 	23137 
29.067 	0.0062905 	23137 
29.567 	0.0062905 	23304 
30.067 	0.0062905 	23137 
30.567 	0.0062905 	23137 
31.067 	0.0061839 	22971 
31.567 	0.0061839 	23304 
32.067 	0.0062905 	23137 
32.567 	0.0061839 	23137 
33.067 	0.0061839 	23137 
33.567 	0.0061839 	23137 
34.067 	0.0062905 	23137 
34.567 	0.0061839 	23137 
35.067 	0.0061839 	23304 
35.567 	0.0061839 	23137 
36.067 	0.0061839 	23137 
36.567 	0.0061839 	23137 
37.067 	0.0061839 	23137 
37.567 	0.0061839 	23137 
38.067 	0.0061839 	23137 
38.567 	0.0061839 	22971 
39.067 	0.0061839 	23137 
39.567 	0.0060772 	23137 
40.067 	0.0061839 	23137 
40.567 	0.0061839 	23137 
41.067 	0.0060772 	23137 
41.567 	0.0060772 	22971 
42.067 	0.0060772 	23137 
42.567 	0.0061839 	23137 
43.067 	0.0061839 	23304 
43.567 	0.0061839 	23137 
44.067 	0.0060772 	23137 
44.567 	0.0060772 	23137 
45.067 	0.0061839 	23137 
45.567 	0.0061839 	22971 
46.067 	0.0060772 	23304 
46.567 	0.0060772 	23137 
47.067 	0.0060772 	22971 
47.567 	0.0061839 	23137 
48.067 	0.0061839 	23137 
48.567 	0.0060772 	23137 
49.067 	0.0060772 	23137 
49.567 	0.0061839 	23137 
50.067 	0.0060772 	23137 
50.567 	0.0060772 	23137 
51.067 	0.0060772 	23137 
51.567 	0.0060772 	23304 
52.067 	0.0060772 	23137 
52.567 	0.0060772 	23137 
53.067 	0.0060772 	23137 
53.567 	0.0060772 	23137 
54.067 	0.0060772 	23304 
54.567 	0.0060772 	23137 
55.067 	0.0059706 	23137 
55.567 	0.0060772 	23137 
56.067 	0.0059706 	23137 
56.567 	0.0059706 	23137 
57.067 	0.0059706 	23137 
57.567 	0.0060772 	23137 
58.067 	0.0060772 	23137 
58.567 	0.0060772 	23137 
59.067 	0.0060772 	23137 
59.567 	0.0059706 	23137 
60.067 	0.0059706 	23137 
60.567 	0.0060772 	23137 
61.067 	0.0060772 	23137 
61.567 	0.0060772 	23137 
62.067 	0.0060772 	23304 
62.567 	0.0059706 	23304 
63.067 	0.0060772 	23137 
63.567 	0.0059706 	23137 
64.067 	0.0060772 	23137 
64.567 	0.0060772 	23137 
65.067 	0.0060772 	23137 
65.567 	0.0060772 	23137 
66.067 	0.0060772 	23137 
66.567 	0.0060772 	23137 
67.067 	0.0060772 	23137 
67.567 	0.0060772 	22971 
68.067 	0.0059706 	23137 
68.567 	0.0060772 	23304 
69.067 	0.0060772 	23304 
69.567 	0.0060772 	23304 
70.067 	0.0059706 	23137 
70.567 	0.0060772 	23137 
71.067 	0.0060772 	23137 
71.567 	0.0059706 	23304 
72.067 	0.0059706 	23304 
72.567 	0.0060772 	23137 
73.067 	0.0060772 	23137 
73.567 	0.0059706 	23137 
74.067 	0.0060772 	23304 
74.567 	0.0059706 	23137 
75.067 	0.0060772 	23137 
75.567 	0.0060772 	22971 
76.067 	0.0059706 	23137 
76.567 	0.0060772 	23304 
77.067 	0.0060772 	23137 
77.567 	0.0059706 	23137 
78.067 	0.0060772 	23137 
78.567 	0.0060772 	23137 
79.067 	0.0059706 	23137 
79.567 	0.0060772 	22971 
80.067 	0.0060772 	23137 
80.567 	0.0059706 	23137 
81.067 	0.0059706 	23137 
81.567 	0.0059706 	23137 
82.067 	0.0060772 	23137 
82.567 	0.0060772 	23137 
83.067 	0.0060772 	22638 
83.567 	0.0059706 	22139 
84.067 	0.0057574 	21806 
84.567 	0.0056508 	21306 
85.067 	0.0056508 	20974 
85.567 	0.0054375 	20474 
86.067 	0.0052243 	19975 
86.450 	0.0051177 	19309 
86.950 	0.0049044 	18810 
87.450 	0.0046912 	18310 
87.950 	0.0045846 	17811 
88.400 	0.0044780 	17145 
88.900 	0.0042647 	16646 
89.400 	0.0041581 	16313 
89.900 	0.0039449 	15813 
90.400 	0.0038383 	15314 
90.900 	0.0038383 	14981 
91.400 	0.0038383 	14482 
91.900 	0.0036250 	14315 
92.333 	0.0034118 	13649 
92.717 	0.0033052 	12984 
93.117 	0.0030919 	12318 
93.617 	0.0028787 	11818 
94.117 	0.0027721 	11319 
94.617 	0.0025588 	10820 
95.083 	0.0024522 	10154 
95.583 	0.0022390 	9820.9 
96.083 	0.0022390 	9155.1 
96.583 	0.0020257 	8822.2 
97.067 	0.0018125 	8156.4 
97.567 	0.0017059 	7657.0 
98.067 	0.0015993 	7157.6 
98.567 	0.0014927 	6824.7 
98.950 	0.0013860 	6158.9 
99.450 	0.0011728 	5826.0 
99.883 	0.0010662 	5160.2 
100.38 	0.00095956 	4993.7 
100.67 	0.00085294 	4327.9 
101.17 	0.00074633 	3995.0 
101.67 	0.00063971 	3495.6 
102.17 	0.00053309 	2996.2 
102.60 	0.00042647 	2330.4 
103.10 	0.00021324 	2163.9 
103.60 	0.00021324 	1997.5 
104.10 	0.00010662 	1664.6 
104.60 	0.00010662 	1498.1 
105.10 	0.00010662 	1331.7 
105.60 	0.00010662 	1498.1 
106.10 	0.00010662 	1331.7 
106.60 	0.00000 	1331.7 
107.10 	0.00010662 	1165.2 
107.60 	0.00000 	1165.2 
108.10 	0.00000 	1165.2 
108.60 	0.00000 	1331.7 
109.10 	0.00010662 	1165.2 
109.60 	0.00000 	1165.2 
110.10 	0.00000 	1331.7 
110.60 	0.00000 	1165.2 
111.10 	0.00000 	1331.7 
111.60 	0.00000 	1165.2 
112.10 	0.00000 	1165.2 
112.60 	0.00010662 	1331.7 
113.10 	0.00010662 	1165.2 
113.60 	0.00010662 	1165.2 
114.10 	0.00010662 	1165.2 
114.60 	0.00010662 	1165.2 
115.10 	0.00000 	1331.7 
115.60 	0.00000 	1165.2 
116.10 	0.00010662 	1331.7 
116.60 	0.00010662 	1165.2 
117.10 	0.00000 	1165.2 
117.60 	0.00010662 	1165.2 
118.10 	0.00010662 	1165.2 
118.60 	0.00000 	1331.7 
119.10 	0.00000 	998.74 
119.60 	0.00010662 	1331.7 
120.10 	0.00010662 	998.74 
120.60 	0.00010662 	1165.2 
121.10 	0.00010662 	1165.2 
121.60 	0.00010662 	1165.2 
122.10 	0.00010662 	1165.2 
122.60 	0.00010662 	998.74 
123.10 	0.00010662 	1165.2 
123.60 	0.00010662 	1165.2 
124.10 	0.00010662 	1165.2 
124.60 	0.00010662 	1165.2 
125.10 	0.00010662 	1331.7 
125.60 	0.00010662 	1165.2 
126.10 	0.00010662 	1165.2 
126.60 	0.00010662 	1165.2 
127.10 	0.00010662 	1165.2 
127.60 	0.00000 	1331.7 
128.10 	0.00000 	998.74 
128.60 	0.00010662 	1331.7 
129.10 	0.00010662 	1165.2 
129.60 	0.00000 	1165.2 
130.10 	0.00000 	1165.2 
130.60 	0.00010662 	1165.2 
131.10 	0.00010662 	1165.2 
131.60 	0.00010662 	1165.2 
132.10 	0.00010662 	1165.2 
132.60 	0.00010662 	1165.2 
133.10 	0.00010662 	1331.7 
133.60 	0.00010662 	998.74 
134.10 	0.00010662 	1165.2 
134.60 	0.00010662 	998.74 
135.10 	0.00010662 	1165.2 
135.60 	0.00010662 	998.74 
136.10 	0.00010662 	1331.7 
136.60 	0.00010662 	1331.7 
137.10 	0.00010662 	1165.2 
137.60 	0.00021324 	1331.7 
138.10 	0.00010662 	998.74 
138.60 	0.00010662 	1165.2 
139.10 	0.00010662 	998.74 
139.60 	0.00010662 	1331.7 
140.10 	0.00021324 	1165.2 
140.60 	0.00021324 	1165.2 
141.10 	0.00010662 	1165.2 
141.60 	0.00021324 	1165.2 
142.10 	0.00021324 	1165.2 
142.60 	0.00021324 	1165.2 
143.10 	0.00021324 	1331.7 
143.60 	0.00021324 	1165.2 
144.10 	0.00021324 	1331.7 
144.60 	0.00010662 	1331.7 
145.10 	0.00021324 	1165.2 
145.60 	0.00021324 	1331.7 
146.10 	0.00010662 	998.74 
146.60 	0.00010662 	1165.2 
147.10 	0.00021324 	998.74 
147.60 	0.00021324 	1165.2 
148.10 	0.00021324 	1165.2 
148.60 	0.00021324 	1165.2 
149.10 	0.00021324 	1165.2 
149.60 	0.00021324 	1165.2 
150.10 	0.00021324 	1165.2 
150.60 	0.00021324 	1165.2 
151.10 	0.00021324 	1165.2 
151.60 	0.00021324 	1165.2 
152.10 	0.00021324 	1331.7 
152.60 	0.00021324 	1165.2 
153.10 	0.00021324 	1165.2 
153.60 	0.00021324 	998.74 
154.10 	0.00021324 	1165.2 
154.60 	0.00021324 	1165.2 
155.10 	0.00021324 	998.74 
155.60 	0.00021324 	1165.2 
156.10 	0.00021324 	998.74 
156.60 	0.00021324 	1331.7 
157.10 	0.00021324 	998.74 
157.60 	0.00021324 	1331.7 
158.10 	0.00021324 	1165.2 
158.60 	0.00021324 	1165.2 
159.10 	0.00021324 	1165.2 
159.60 	0.00021324 	1165.2 
160.10 	0.00031985 	1331.7 
160.60 	0.00031985 	998.74 
161.10 	0.00021324 	1165.2 
161.60 	0.00021324 	1165.2 
162.10 	0.00031985 	1165.2 
162.60 	0.00021324 	1165.2 
163.10 	0.00021324 	1165.2 
163.60 	0.00021324 	1165.2 
164.10 	0.00031985 	1165.2 
164.60 	0.00021324 	1165.2 
165.10 	0.00021324 	1165.2 
165.60 	0.00031985 	1331.7 
166.10 	0.00031985 	1498.1 
166.60 	0.00042647 	1664.6 
167.05 	0.00053309 	2330.4 
167.55 	0.00074633 	2829.8 
168.05 	0.00074633 	3162.7 
168.53 	0.00095956 	3828.5 
169.03 	0.0011728 	4161.4 
169.37 	0.0012794 	4827.2 
169.87 	0.0014927 	5160.2 
170.25 	0.0014927 	5826.0 
170.75 	0.0017059 	6325.4 
171.25 	0.0018125 	6824.7 
171.75 	0.0020257 	7490.6 
172.25 	0.0022390 	7823.5 
172.70 	0.0022390 	8489.3 
173.20 	0.0024522 	8822.2 
173.62 	0.0025588 	9488.0 
174.12 	0.0026655 	9987.4 
174.62 	0.0027721 	10320 
175.08 	0.0029853 	10986 
175.58 	0.0030919 	11319 
176.08 	0.0031985 	11652 
176.58 	0.0033052 	11818 
177.08 	0.0034118 	12318 
177.37 	0.0036250 	12984 
177.75 	0.0037316 	13649 
178.25 	0.0040515 	14315 
178.75 	0.0040515 	14815 
179.25 	0.0042647 	15314 
179.75 	0.0044780 	15813 
180.20 	0.0044780 	16479 
180.70 	0.0046912 	16812 
181.20 	0.0047978 	17312 
181.70 	0.0049044 	17644 
182.17 	0.0050111 	18310 
182.62 	0.0053309 	18976 
183.12 	0.0053309 	19475 
183.62 	0.0056508 	19975 
184.10 	0.0056508 	20641 
184.60 	0.0058640 	21140 
185.10 	0.0060772 	21639 
185.60 	0.0062905 	22139 
186.10 	0.0063971 	22638 
186.60 	0.0065037 	22971 
187.10 	0.0065037 	23137 
187.60 	0.0065037 	23137 
188.10 	0.0066103 	23137 
188.60 	0.0066103 	22971 
189.10 	0.0065037 	23137 
189.60 	0.0065037 	23137 
190.10 	0.0066103 	23137 
190.60 	0.0065037 	23137 
191.10 	0.0065037 	23137 
191.60 	0.0066103 	23137 
192.10 	0.0066103 	23137 
192.60 	0.0066103 	23137 
193.10 	0.0066103 	23137 
193.60 	0.0066103 	23137 
194.10 	0.0066103 	22971 
194.60 	0.0067169 	23137 
195.10 	0.0067169 	23137 
195.60 	0.0066103 	23137 
196.10 	0.0066103 	23137 
196.60 	0.0067169 	23137 
197.10 	0.0067169 	23137 
197.60 	0.0066103 	23137 
198.10 	0.0066103 	23137 
198.60 	0.0066103 	23137 
199.10 	0.0066103 	23137 
199.60 	0.0066103 	23137 
200.10 	0.0066103 	22971 
200.60 	0.0066103 	23137 
201.10 	0.0066103 	23137 
201.60 	0.0066103 	23137 
202.10 	0.0067169 	23137 
202.60 	0.0066103 	23137 
203.10 	0.0067169 	23304 
203.60 	0.0067169 	23137 
204.10 	0.0067169 	23137 
204.60 	0.0067169 	23137 
205.10 	0.0067169 	23137 
205.60 	0.0067169 	23137 
206.10 	0.0067169 	23137 
206.60 	0.0067169 	23137 
207.10 	0.0067169 	23137 
207.60 	0.0067169 	23137 
208.10 	0.0067169 	22971 
208.60 	0.0067169 	23137 
209.10 	0.0067169 	23304 
209.60 	0.0068236 	23304 
210.10 	0.0067169 	23137 
210.60 	0.0068236 	23137 
211.10 	0.0068236 	23137 
211.60 	0.0068236 	23137 
212.10 	0.0068236 	23137 
212.60 	0.0068236 	23137 
213.10 	0.0068236 	23137 
213.60 	0.0068236 	23304 
214.10 	0.0068236 	23137 
214.60 	0.0068236 	23137 
215.10 	0.0068236 	23137 
215.60 	0.0068236 	23304 
216.10 	0.0068236 	23137 
216.60 	0.0069302 	23137 
217.10 	0.0069302 	23137 
217.60 	0.0069302 	22971 
218.10 	0.0068236 	23137 
218.60 	0.0068236 	23304 
219.10 	0.0069302 	23304 
219.60 	0.0068236 	23137 
220.10 	0.0069302 	23137 
220.60 	0.0069302 	22971 
221.10 	0.0069302 	23137 
221.60 	0.0068236 	23304 
222.10 	0.0068236 	23137 
222.60 	0.0069302 	23137 
223.10 	0.0069302 	23137 
223.60 	0.0069302 	23137 
224.10 	0.0069302 	23137 
224.60 	0.0069302 	22971 
225.10 	0.0069302 	23137 
225.60 	0.0069302 	23137 
226.10 	0.0069302 	23137 
226.60 	0.0069302 	23137 
227.10 	0.0069302 	23137 
227.60 	0.0069302 	23137 
228.10 	0.0069302 	23304 
228.60 	0.0069302 	23137 
229.10 	0.0069302 	22971 
229.60 	0.0070368 	23137 
230.10 	0.0069302 	23137 
230.60 	0.0070368 	23137 
231.10 	0.0069302 	23137 
231.60 	0.0069302 	23137 
232.10 	0.0069302 	23137 
232.60 	0.0069302 	23137 
233.10 	0.0069302 	23137 
233.60 	0.0069302 	23137 
234.10 	0.0069302 	23137 
234.60 	0.0070368 	23137 
235.10 	0.0069302 	23137 
235.60 	0.0068236 	23137 
236.10 	0.0067169 	23137 
236.60 	0.0067169 	23137 
237.10 	0.0067169 	23137 
237.60 	0.0067169 	22971 
238.10 	0.0067169 	23137 
238.60 	0.0067169 	23137 
239.10 	0.0067169 	23304 
239.60 	0.0067169 	23137 
240.10 	0.0067169 	23137 
240.60 	0.0066103 	22971 
241.10 	0.0065037 	23304 
241.60 	0.0066103 	23137 
242.10 	0.0065037 	23137 
242.60 	0.0065037 	23137 
243.10 	0.0065037 	23137 
243.60 	0.0066103 	23137 
244.10 	0.0063971 	23137 
244.60 	0.0063971 	23137 
245.10 	0.0065037 	23137 
245.60 	0.0063971 	23137 
246.10 	0.0063971 	23137 
246.60 	0.0063971 	22971 
247.10 	0.0062905 	22472 
247.60 	0.0062905 	22139 
248.10 	0.0060772 	21806 
248.60 	0.0058640 	21306 
249.10 	0.0057574 	20974 
249.60 	0.0057574 	20474 
250.08 	0.0055441 	19808 
250.55 	0.0053309 	19143 
251.05 	0.0051177 	18810 
251.48 	0.0050111 	18144 
251.98 	0.0049044 	17644 
252.48 	0.0046912 	17145 
252.98 	0.0046912 	16646 
253.48 	0.0045846 	16146 
253.98 	0.0043713 	15647 
254.48 	0.0041581 	15314 
254.98 	0.0041581 	14981 
255.48 	0.0039449 	14648 
255.98 	0.0039449 	14315 
256.33 	0.0037316 	13649 
256.70 	0.0035184 	12984 
257.17 	0.0034118 	12318 
257.67 	0.0031985 	11818 
258.12 	0.0030919 	11153 
258.62 	0.0028787 	10653 
259.12 	0.0027721 	10320 
259.60 	0.0025588 	9654.5 
260.10 	0.0023456 	9155.1 
260.60 	0.0021324 	8655.8 
261.10 	0.0020257 	8156.4 
261.60 	0.0019191 	7657.0 
262.10 	0.0018125 	7157.6 
262.55 	0.0017059 	6491.8 
263.05 	0.0015993 	5992.4 
263.55 	0.0014927 	5659.5 
264.02 	0.0012794 	4993.7 
264.52 	0.0012794 	4660.8 
265.02 	0.0011728 	4327.9 
265.40 	0.0010662 	3662.0 
265.90 	0.00085294 	3329.1 
266.32 	0.00085294 	2663.3 
266.82 	0.00063971 	2496.9 
267.27 	0.00053309 	1831.0 
267.77 	0.00053309 	1831.0 
268.27 	0.00042647 	1498.1 
268.77 	0.00042647 	1498.1 
269.27 	0.00042647 	1498.1 
269.77 	0.00042647 	1331.7 
270.27 	0.00031985 	1165.2 
270.77 	0.00010662 	1165.2 
271.27 	0.00000 	1165.2 
271.77 	0.00000 	1165.2 
272.27 	0.00000 	1331.7 
272.77 	0.00000 	1165.2 
273.27 	0.00000 	1165.2 
273.77 	0.00000 	1331.7 
274.27 	0.00000 	1165.2 
274.77 	0.00000 	1165.2 
275.27 	0.00000 	1331.7 
275.77 	0.00000 	1165.2 
276.27 	0.00000 	1331.7 
276.77 	0.00000 	1165.2 
277.27 	0.00000 	1165.2 
277.77 	0.00000 	1165.2 
278.27 	0.00000 	998.74 
278.77 	-0.0001068 	1331.7 
279.27 	0.00000 	1165.2 
279.77 	0.00000 	1165.2 
280.27 	0.00000 	1165.2 
280.77 	0.00000 	1165.2 
281.27 	0.00000 	1165.2 
281.77 	0.00000 	998.74 
282.27 	0.00000 	1331.7 
282.77 	0.00000 	998.74 
283.27 	0.00000 	1165.2 
283.77 	0.00000 	998.74 
284.27 	0.00000 	1165.2 
284.77 	0.00000 	1165.2 
285.27 	0.00000 	998.74 
285.77 	0.00000 	1331.7 
286.27 	0.00000 	998.74 
286.77 	0.00000 	1331.7 
287.27 	0.00000 	1165.2 
287.77 	0.00000 	1165.2 
288.27 	0.00000 	1331.7 
288.77 	0.00000 	1165.2 
289.27 	0.00000 	1331.7 
289.77 	0.00000 	1165.2 
290.27 	0.00000 	1165.2 
290.77 	0.00000 	1165.2 
291.27 	0.00000 	1165.2 
291.77 	0.00000 	1165.2 
292.27 	-0.0001068 	998.74 
292.77 	0.00000 	1331.7 
293.27 	-0.0001068 	1165.2 
293.77 	-0.0001068 	1165.2 
294.27 	-0.0001068 	998.74 
294.77 	0.00000 	1165.2 
295.27 	0.00000 	1165.2 
295.77 	0.00000 	1165.2 
296.27 	0.00000 	1331.7 
296.77 	0.00010662 	1165.2 
297.27 	0.00010662 	1165.2 
297.77 	0.00010662 	998.74 
298.27 	0.00010662 	1165.2 
298.77 	0.00010662 	998.74 
299.27 	0.00010662 	1331.7 
299.77 	0.00010662 	998.74 
300.27 	0.00010662 	1165.2 
300.77 	0.00021324 	1331.7 
301.27 	0.00021324 	1165.2 
301.77 	0.00021324 	1331.7 
302.27 	0.00021324 	998.74 
302.77 	0.00021324 	1165.2 
303.27 	0.00021324 	1165.2 
303.77 	0.00021324 	1165.2 
304.27 	0.00021324 	1165.2 
304.77 	0.00021324 	1165.2 
305.27 	0.00021324 	1165.2 
305.77 	0.00021324 	1165.2 
306.27 	0.00021324 	1331.7 
306.77 	0.00021324 	998.74 
307.27 	0.00021324 	1331.7 
307.77 	0.00021324 	1165.2 
308.27 	0.00021324 	1165.2 
308.77 	0.00021324 	1165.2 
309.27 	0.00021324 	1165.2 
309.77 	0.00021324 	1165.2 
310.27 	0.00021324 	1165.2 
310.77 	0.00021324 	1165.2 
311.27 	0.00021324 	1165.2 
311.77 	0.00031985 	1165.2 
312.27 	0.00031985 	1165.2 
312.77 	0.00021324 	1331.7 
313.27 	0.00021324 	998.74 
313.77 	0.00021324 	1165.2 
314.27 	0.00031985 	1331.7 
314.77 	0.00031985 	1165.2 
315.27 	0.00031985 	1165.2 
315.77 	0.00031985 	1165.2 
316.27 	0.00031985 	1165.2 
316.77 	0.00031985 	1165.2 
317.27 	0.00031985 	1331.7 
317.77 	0.00031985 	1165.2 
318.27 	0.00042647 	1165.2 
318.77 	0.00042647 	1165.2 
319.27 	0.00031985 	1165.2 
319.77 	0.00031985 	1165.2 
320.27 	0.00031985 	998.74 
320.77 	0.00031985 	1331.7 
321.27 	0.00021324 	998.74 
321.77 	0.00021324 	1165.2 
322.27 	0.00021324 	1165.2 
322.77 	0.00021324 	1165.2 
323.27 	0.00021324 	998.74 
323.77 	0.00031985 	1331.7 
324.27 	0.00031985 	998.74 
324.77 	0.00031985 	1331.7 
325.27 	0.00021324 	1165.2 
325.77 	0.00021324 	1165.2 
326.27 	0.00031985 	1331.7 
326.77 	0.00031985 	998.74 
327.27 	0.00031985 	1165.2 
327.77 	0.00031985 	1165.2 
328.27 	0.00031985 	1165.2 
328.77 	0.00031985 	1165.2 
329.27 	0.00031985 	998.74 
329.77 	0.00042647 	1331.7 
330.27 	0.00042647 	1165.2 
330.77 	0.00053309 	1664.6 
331.27 	0.00063971 	1997.5 
331.68 	0.00074633 	2663.3 
332.18 	0.00085294 	2996.2 
332.62 	0.00095956 	3662.0 
333.12 	0.0011728 	3828.5 
333.50 	0.0012794 	4494.3 
334.00 	0.0014927 	5160.2 
334.50 	0.0017059 	5493.1 
334.93 	0.0018125 	6158.9 
335.43 	0.0019191 	6658.3 
335.88 	0.0020257 	7324.1 
336.38 	0.0021324 	7657.0 
336.87 	0.0023456 	8322.8 
337.37 	0.0023456 	8822.2 
337.87 	0.0026655 	9321.6 
338.37 	0.0028787 	9820.9 
338.83 	0.0028787 	10487 
339.33 	0.0030919 	10820 
339.83 	0.0031985 	11319 
340.33 	0.0033052 	11652 
340.83 	0.0034118 	11818 
341.33 	0.0034118 	12318 
341.68 	0.0036250 	12984 
342.10 	0.0039449 	13649 
342.58 	0.0040515 	14315 
343.08 	0.0042647 	14815 
343.58 	0.0043713 	15314 
344.05 	0.0044780 	15980 
344.55 	0.0045846 	16479 
345.05 	0.0047978 	16812 
345.55 	0.0047978 	17312 
346.05 	0.0050111 	17644 
346.43 	0.0052243 	18310 
346.92 	0.0052243 	18976 
347.42 	0.0055441 	19475 
347.92 	0.0056508 	19975 
348.42 	0.0058640 	20641 
348.92 	0.0060772 	21140 
349.42 	0.0060772 	21473 
349.80 	0.0061839 	22139 
350.30 	0.0063971 	22472 
350.80 	0.0063971 	22971 
351.30 	0.0065037 	23137 
351.80 	0.0066103 	23137 
352.30 	0.0065037 	23137 
352.80 	0.0065037 	23137 
353.30 	0.0066103 	23304 
353.80 	0.0066103 	23137 
354.30 	0.0065037 	23137 
354.80 	0.0066103 	23137 
355.30 	0.0066103 	23137 
355.80 	0.0066103 	23137 
356.30 	0.0065037 	22971 
356.80 	0.0065037 	23137 
357.30 	0.0066103 	23137 
357.80 	0.0066103 	23137 
358.30 	0.0066103 	23137 
358.80 	0.0065037 	23137 
359.30 	0.0065037 	23137 
359.80 	0.0066103 	23137 
360.30 	0.0066103 	23137 
360.80 	0.0066103 	23137 
361.30 	0.0066103 	23137 
361.80 	0.0066103 	23137 
362.30 	0.0066103 	22971 
362.80 	0.0065037 	22971 
363.30 	0.0065037 	23137 
363.80 	0.0066103 	23137 
364.30 	0.0065037 	23137 
364.80 	0.0065037 	23137 
365.30 	0.0066103 	23137 
365.80 	0.0065037 	23137 
366.30 	0.0066103 	23137 
366.80 	0.0066103 	23137 
367.30 	0.0065037 	23137 
367.80 	0.0066103 	23137 
368.30 	0.0066103 	23304 
368.80 	0.0065037 	23137 
369.30 	0.0065037 	23137 
369.80 	0.0065037 	23137 
370.30 	0.0065037 	23137 
370.80 	0.0066103 	23137 
371.30 	0.0063971 	23137 
371.80 	0.0066103 	23137 
372.30 	0.0065037 	23137 
372.80 	0.0065037 	23137 
373.30 	0.0065037 	23137 
373.80 	0.0065037 	23137 
374.30 	0.0065037 	23137 
374.80 	0.0066103 	23137 
375.30 	0.0066103 	23304 
375.80 	0.0065037 	23137 
376.30 	0.0065037 	23137 
376.80 	0.0065037 	23137 
377.30 	0.0066103 	23137 
377.80 	0.0066103 	23137 
378.30 	0.0065037 	23137 
378.80 	0.0065037 	23137 
379.30 	0.0065037 	23137 
379.80 	0.0065037 	23137 
380.30 	0.0065037 	23137 
380.80 	0.0066103 	23137 
381.30 	0.0065037 	23137 
381.80 	0.0065037 	23137 
382.30 	0.0065037 	23137 
382.80 	0.0065037 	23137 
383.30 	0.0065037 	22971 
383.80 	0.0065037 	23137 
384.30 	0.0066103 	23137 
384.80 	0.0066103 	23304 
385.30 	0.0066103 	23137 
385.80 	0.0065037 	23137 
386.30 	0.0066103 	23137 
386.80 	0.0066103 	23137 
387.30 	0.0065037 	23137 
387.80 	0.0066103 	23137 
388.30 	0.0066103 	23137 
388.80 	0.0065037 	22971 
389.30 	0.0065037 	23137 
389.80 	0.0065037 	23137 
390.30 	0.0066103 	23137 
390.80 	0.0065037 	23137 
391.30 	0.0065037 	23137 
391.80 	0.0063971 	22971 
392.30 	0.0065037 	22971 
392.80 	0.0065037 	23137 
393.30 	0.0065037 	23137 
393.80 	0.0065037 	23137 
394.30 	0.0065037 	23137 
394.80 	0.0065037 	23137 
395.30 	0.0065037 	23137 
395.80 	0.0063971 	23137 
396.30 	0.0065037 	23137 
396.80 	0.0065037 	23137 
397.30 	0.0065037 	23137 
397.80 	0.0063971 	23137 
398.30 	0.0065037 	23304 
398.80 	0.0065037 	23304 
399.30 	0.0065037 	23137 
399.80 	0.0065037 	23137 
400.30 	0.0065037 	23137 
400.80 	0.0065037 	23304 
401.30 	0.0065037 	23137 
401.80 	0.0065037 	23137 
402.30 	0.0063971 	22971 
402.80 	0.0065037 	23137 
403.30 	0.0065037 	23137 
403.80 	0.0065037 	23137 
404.30 	0.0065037 	22971 
404.80 	0.0065037 	23137 
405.30 	0.0065037 	23137 
405.80 	0.0065037 	23137 
406.30 	0.0065037 	22971 
406.80 	0.0065037 	23137 
407.30 	0.0065037 	23137 
407.80 	0.0065037 	23137 
408.30 	0.0065037 	22971 
408.80 	0.0066103 	23137 
409.30 	0.0065037 	23137 
409.80 	0.0065037 	23137 
410.30 	0.0065037 	23137 
410.80 	0.0065037 	23137 
411.30 	0.0063971 	22805 
411.80 	0.0062905 	22305 
412.30 	0.0062905 	21806 
412.80 	0.0061839 	21473 
413.30 	0.0059706 	20974 
413.80 	0.0058640 	20474 
414.30 	0.0057574 	19975 
414.73 	0.0055441 	19309 
415.23 	0.0054375 	18810 
415.73 	0.0052243 	18310 
416.23 	0.0051177 	17811 
416.73 	0.0050111 	17145 
417.23 	0.0047978 	16812 
417.73 	0.0046912 	16146 
418.23 	0.0044780 	15647 
418.73 	0.0043713 	15314 
419.23 	0.0041581 	14981 
419.73 	0.0041581 	14648 
420.23 	0.0039449 	14315 
420.65 	0.0038383 	13649 
421.02 	0.0038383 	12984 
421.45 	0.0036250 	12318 
421.95 	0.0034118 	11818 
422.40 	0.0031985 	11153 
422.90 	0.0029853 	10820 
423.40 	0.0029853 	10320 
423.90 	0.0026655 	9820.9 
424.40 	0.0026655 	9321.6 
424.88 	0.0024522 	8655.8 
425.38 	0.0023456 	8156.4 
425.88 	0.0021324 	7657.0 
426.38 	0.0020257 	6991.2 
426.88 	0.0019191 	6824.7 
427.22 	0.0017059 	6158.9 
427.72 	0.0017059 	5826.0 
428.13 	0.0015993 	5160.2 
428.63 	0.0014927 	4827.2 
429.13 	0.0012794 	4327.9 
429.63 	0.0011728 	3995.0 
430.03 	0.0010662 	3329.1 
430.53 	0.00095956 	3162.7 
430.80 	0.00085294 	2496.9 
431.30 	0.00074633 	2163.9 
431.80 	0.00063971 	1831.0 
432.30 	0.00063971 	1664.6 
432.80 	0.00053309 	1664.6 
433.30 	0.00053309 	1498.1 
433.80 	0.00053309 	1498.1 
434.30 	0.00053309 	1165.2 
434.80 	0.00053309 	1331.7 
435.30 	0.00053309 	1331.7 
435.80 	0.00042647 	1165.2 
436.30 	0.00053309 	1165.2 
436.80 	0.00042647 	1331.7 
437.30 	0.00053309 	1165.2 
437.80 	0.00042647 	1165.2 
438.30 	0.00031985 	1331.7 
438.80 	0.00042647 	998.74 
439.30 	0.00042647 	1331.7 
439.80 	0.00042647 	1165.2 
440.30 	0.00042647 	1165.2 
440.80 	0.00042647 	1165.2 
441.30 	0.00042647 	1165.2 
441.80 	0.00042647 	1331.7 
442.30 	0.00031985 	998.74 
442.80 	0.00042647 	1331.7 
443.30 	0.00042647 	998.74 
443.80 	0.00042647 	1165.2 
444.30 	0.00042647 	998.74 
444.80 	0.00042647 	1165.2 
445.30 	0.00042647 	998.74 
445.80 	0.00042647 	1331.7 
446.30 	0.00053309 	1165.2 
446.80 	0.00042647 	1331.7 
447.30 	0.00053309 	1165.2 
447.80 	0.00053309 	1165.2 
448.30 	0.00042647 	1331.7 
448.80 	0.00042647 	998.74 
449.30 	0.00042647 	1331.7 
449.80 	0.00053309 	1165.2 
450.30 	0.00042647 	1165.2 
450.80 	0.00042647 	1165.2 
451.30 	0.00053309 	1165.2 
451.80 	0.00042647 	1165.2 
452.30 	0.00042647 	1165.2 
452.80 	0.00042647 	1165.2 
453.30 	0.00053309 	1165.2 
453.80 	0.00042647 	1331.7 
454.30 	0.00053309 	998.74 
454.80 	0.00042647 	1331.7 
455.30 	0.00053309 	1165.2 
455.80 	0.00053309 	1165.2 
456.30 	0.00042647 	1331.7 
456.80 	0.00053309 	998.74 
457.30 	0.00042647 	1331.7 
457.80 	0.00053309 	1165.2 
458.30 	0.00042647 	1165.2 
458.80 	0.00053309 	1165.2 
459.30 	0.00063971 	1165.2 
459.80 	0.00063971 	1165.2 
460.30 	0.00053309 	998.74 
460.80 	0.00053309 	1165.2 
461.30 	0.00053309 	1165.2 
461.80 	0.00063971 	1165.2 
462.30 	0.00053309 	1165.2 
462.80 	0.00053309 	998.74 
463.30 	0.00063971 	1165.2 
463.80 	0.00053309 	998.74 
464.30 	0.00063971 	1165.2 
464.80 	0.00053309 	998.74 
465.30 	0.00063971 	1331.7 
465.80 	0.00053309 	1331.7 
466.30 	0.00063971 	998.74 
466.80 	0.00063971 	1331.7 
467.30 	0.00053309 	998.74 
467.80 	0.00063971 	1331.7 
468.30 	0.00063971 	1165.2 
468.80 	0.00063971 	1165.2 
469.30 	0.00063971 	998.74 
469.80 	0.00063971 	1331.7 
470.30 	0.00063971 	998.74 
470.80 	0.00063971 	1165.2 
471.30 	0.00063971 	1165.2 
471.80 	0.00063971 	1165.2 
472.30 	0.00063971 	1331.7 
472.80 	0.00063971 	1165.2 
473.30 	0.00063971 	1165.2 
473.80 	0.00053309 	998.74 
474.30 	0.00063971 	1331.7 
474.80 	0.00063971 	1165.2 
475.30 	0.00063971 	1165.2 
475.80 	0.00063971 	1165.2 
476.30 	0.00063971 	1165.2 
476.80 	0.00063971 	1165.2 
477.30 	0.00063971 	1165.2 
477.80 	0.00053309 	1165.2 
478.30 	0.00063971 	1165.2 
478.80 	0.00063971 	1331.7 
479.30 	0.00063971 	1165.2 
479.80 	0.00063971 	1165.2 
480.30 	0.00063971 	1331.7 
480.80 	0.00063971 	1165.2 
481.30 	0.00063971 	1165.2 
481.80 	0.00063971 	998.74 
482.30 	0.00074633 	1331.7 
482.80 	0.00063971 	1165.2 
483.30 	0.00063971 	1165.2 
483.80 	0.00063971 	998.74 
484.30 	0.00074633 	1165.2 
484.80 	0.00074633 	1165.2 
485.30 	0.00074633 	1165.2 
485.80 	0.00074633 	1165.2 
486.30 	0.00074633 	1165.2 
486.80 	0.00074633 	1165.2 
487.30 	0.00074633 	1165.2 
487.80 	0.00063971 	1331.7 
488.30 	0.00074633 	1165.2 
488.80 	0.00074633 	1331.7 
489.30 	0.00063971 	1165.2 
489.80 	0.00063971 	1165.2 
490.30 	0.00063971 	1165.2 
490.80 	0.00063971 	1165.2 
491.30 	0.00063971 	1331.7 
491.80 	0.00053309 	998.74 
492.30 	0.00053309 	1331.7 
492.80 	0.00053309 	1165.2 
493.30 	0.00053309 	1165.2 
493.57 	0.00053309 	1165.2 
494.07 	0.00053309 	1165.2 
494.57 	0.00053309 	1165.2 
495.07 	0.00053309 	1165.2 
495.57 	0.00053309 	1165.2 
496.07 	0.00053309 	998.74 
496.57 	0.00053309 	1331.7 
497.07 	0.00053309 	1165.2 
497.57 	0.00053309 	1165.2 
498.07 	0.00053309 	998.74 
498.57 	0.00053309 	1331.7 
499.07 	0.00063971 	1165.2 
499.57 	0.00053309 	1165.2 
500.07 	0.00053309 	1165.2 
500.57 	0.00053309 	1165.2 
501.07 	0.00053309 	1331.7 
501.57 	0.00053309 	1165.2 
502.07 	0.00053309 	1165.2 
502.57 	0.00053309 	1165.2 
503.07 	0.00053309 	1165.2 
503.57 	0.00053309 	998.74 
504.07 	0.00053309 	1331.7 
504.57 	0.00053309 	998.74 
505.07 	0.00063971 	1165.2 
505.57 	0.00053309 	1165.2 
506.07 	0.00053309 	1165.2 
506.57 	0.00053309 	1331.7 
507.07 	0.00053309 	1165.2 
507.57 	0.00053309 	1165.2 
508.07 	0.00063971 	1165.2 
508.57 	0.00053309 	1331.7 
509.07 	0.00063971 	1165.2 
509.57 	0.00063971 	1165.2 
510.07 	0.00063971 	1165.2 
510.57 	0.00063971 	1165.2 
511.07 	0.00063971 	1165.2 
511.57 	0.00053309 	1165.2 
512.07 	0.00063971 	1331.7 
512.57 	0.00053309 	1165.2 
513.07 	0.00063971 	1165.2 
513.57 	0.00063971 	1331.7 
514.07 	0.00053309 	1165.2 
514.57 	0.00063971 	1331.7 
515.07 	0.00053309 	998.74 
515.57 	0.00063971 	1331.7 
516.07 	0.00063971 	998.74 
516.57 	0.00063971 	1331.7 
517.07 	0.00063971 	1165.2 
517.57 	0.00063971 	1331.7 
518.07 	0.00063971 	1165.2 
518.57 	0.00063971 	1165.2 
519.07 	0.00063971 	1165.2 
519.57 	0.00053309 	1165.2 
520.07 	0.00063971 	998.74 
520.57 	0.00063971 	1165.2 
521.07 	0.00063971 	1165.2 
521.57 	0.00063971 	1165.2 
522.07 	0.00063971 	1165.2 
522.57 	0.00063971 	998.74 
523.07 	0.00063971 	1331.7 
523.57 	0.00063971 	998.74 
524.07 	0.00063971 	1165.2 
524.57 	0.00063971 	998.74 
525.07 	0.00063971 	1165.2 
525.57 	0.00074633 	1331.7 
526.07 	0.00074633 	1831.0 
526.57 	0.00095956 	2330.4 
527.07 	0.0010662 	2496.9 
527.57 	0.0011728 	3162.7 
528.07 	0.0013860 	3662.0 
528.48 	0.0014927 	4327.9 
528.98 	0.0015993 	4660.8 
529.38 	0.0017059 	5326.6 
529.88 	0.0019191 	5826.0 
530.38 	0.0022390 	6158.9 
530.77 	0.0023456 	6824.7 
531.27 	0.0024522 	7324.1 
531.77 	0.0026655 	7657.0 
532.20 	0.0026655 	8322.8 
532.70 	0.0027721 	8655.8 
533.15 	0.0029853 	9321.6 
533.65 	0.0031985 	9820.9 
534.15 	0.0031985 	10487 
534.65 	0.0034118 	10820 
535.15 	0.0035184 	11319 
535.65 	0.0037316 	11818 
536.15 	0.0037316 	11985 
536.65 	0.0038383 	12484 
537.10 	0.0040515 	13150 
537.50 	0.0042647 	13816 
538.00 	0.0043713 	14315 
538.47 	0.0046912 	14981 
538.97 	0.0045846 	15480 
539.47 	0.0049044 	15980 
539.97 	0.0050111 	16479 
540.47 	0.0051177 	16979 
540.97 	0.0052243 	17312 
541.47 	0.0054375 	17977 
541.97 	0.0055441 	18643 
542.47 	0.0057574 	19143 
542.95 	0.0059706 	19808 
543.45 	0.0059706 	20141 
543.87 	0.0061839 	20807 
544.37 	0.0062905 	21306 
544.87 	0.0065037 	21806 
545.37 	0.0067169 	22305 
545.87 	0.0067169 	22805 
546.37 	0.0068236 	22971 
546.87 	0.0069302 	22971 
547.37 	0.0069302 	23137 
547.87 	0.0070368 	23137 
548.37 	0.0069302 	22971 
548.87 	0.0068236 	23304 
549.37 	0.0069302 	23137 
549.87 	0.0069302 	23137 
550.37 	0.0069302 	23137 
550.87 	0.0069302 	23137 
551.37 	0.0069302 	23137 
551.87 	0.0069302 	23137 
552.37 	0.0069302 	23137 
552.87 	0.0069302 	23137 
553.37 	0.0069302 	23137 
553.87 	0.0069302 	22971 
554.37 	0.0069302 	23304 
554.87 	0.0069302 	23304 
555.37 	0.0069302 	23137 
555.87 	0.0069302 	23137 
556.37 	0.0069302 	23137 
556.87 	0.0069302 	23137 
557.37 	0.0070368 	23137 
557.87 	0.0069302 	23137 
558.37 	0.0069302 	23137 
558.87 	0.0069302 	23137 
559.37 	0.0069302 	23137 
559.87 	0.0069302 	23137 
560.37 	0.0069302 	23137 
560.87 	0.0069302 	22971 
561.37 	0.0069302 	23137 
561.87 	0.0070368 	23137 
562.37 	0.0070368 	23137 
562.87 	0.0069302 	22971 
563.37 	0.0070368 	23137 
563.87 	0.0070368 	23137 
564.37 	0.0069302 	23137 
564.87 	0.0069302 	23137 
565.37 	0.0070368 	22971 
565.87 	0.0070368 	22971 
566.37 	0.0070368 	23304 
566.87 	0.0070368 	23137 
567.37 	0.0070368 	23137 
567.87 	0.0069302 	23137 
568.37 	0.0069302 	23137 
568.87 	0.0070368 	23137 
569.37 	0.0070368 	23137 
569.87 	0.0069302 	22971 
570.37 	0.0070368 	23137 
570.87 	0.0070368 	23137 
571.37 	0.0070368 	23137 
571.87 	0.0070368 	23137 
572.37 	0.0070368 	23137 
572.87 	0.0070368 	23137 
573.37 	0.0070368 	23137 
573.87 	0.0070368 	23137 
574.37 	0.0070368 	23137 
574.87 	0.0070368 	23137 
575.37 	0.0070368 	23137 
575.87 	0.0070368 	23137 
576.37 	0.0070368 	23137 
576.87 	0.0070368 	23137 
577.37 	0.0070368 	22971 
577.87 	0.0070368 	23137 
578.37 	0.0071434 	23137 
578.87 	0.0070368 	23137 
579.37 	0.0070368 	23137 
579.87 	0.0070368 	23137 
580.37 	0.0071434 	23137 
580.87 	0.0070368 	23137 
581.37 	0.0071434 	23137 
581.87 	0.0070368 	22971 
582.37 	0.0071434 	22971 
582.87 	0.0070368 	23137 
583.37 	0.0071434 	23137 
583.87 	0.0071434 	23137 
584.37 	0.0071434 	23137 
584.87 	0.0071434 	23137 
585.37 	0.0071434 	23137 
585.87 	0.0072500 	23304 
586.37 	0.0071434 	23137 
586.87 	0.0071434 	23137 
587.37 	0.0071434 	23137 
587.87 	0.0072500 	23137 
588.37 	0.0072500 	23137 
588.87 	0.0072500 	23137 
589.37 	0.0072500 	23137 
589.87 	0.0072500 	23137 
590.37 	0.0071434 	23137 
590.87 	0.0072500 	23304 
591.37 	0.0072500 	23304 
591.87 	0.0072500 	23137 
592.37 	0.0072500 	23137 
592.87 	0.0072500 	23137 
593.37 	0.0072500 	23137 
593.87 	0.0072500 	23137 
594.37 	0.0072500 	23137 
594.87 	0.0073566 	23137 
595.37 	0.0072500 	23304 
595.87 	0.0072500 	23137 
596.37 	0.0073566 	23137 
596.87 	0.0072500 	23137 
597.37 	0.0072500 	23137 
597.87 	0.0072500 	23137 
598.37 	0.0072500 	23137 
598.87 	0.0073566 	23137 
599.37 	0.0072500 	23137 
599.87 	0.0072500 	23137 
600.37 	0.0072500 	23137 
600.87 	0.0072500 	23137 
601.37 	0.0073566 	23137 
601.87 	0.0073566 	23137 
602.37 	0.0073566 	23137 
602.87 	0.0073566 	23137 
603.37 	0.0073566 	23137 
603.87 	0.0073566 	23137 
604.37 	0.0073566 	23304 
604.87 	0.0073566 	23137 
605.37 	0.0073566 	23137 
605.87 	0.0073566 	23137 
605.98 	0.0073566 	23137 
606.48 	0.0073566 	23137 
606.98 	0.0073566 	23137 
607.48 	0.0073566 	23137 
607.98 	0.0073566 	23137 
608.48 	0.0073566 	23137 
608.98 	0.0073566 	23137 
609.48 	0.0074633 	23137 
609.98 	0.0074633 	23137 
610.48 	0.0074633 	23137 
610.98 	0.0074633 	23137 
611.48 	0.0074633 	23137 
611.98 	0.0075699 	23137 
612.48 	0.0074633 	23137 
612.98 	0.0074633 	23137 
613.48 	0.0074633 	23137 
613.98 	0.0074633 	23137 
614.48 	0.0074633 	23137 
614.98 	0.0075699 	23137 
615.48 	0.0075699 	23137 
615.98 	0.0075699 	23137 
616.48 	0.0075699 	23137 
616.98 	0.0075699 	23137 
617.48 	0.0075699 	22971 
617.98 	0.0075699 	23137 
618.48 	0.0076765 	23137 
618.98 	0.0076765 	23304 
619.48 	0.0076765 	23137 
619.98 	0.0076765 	23137 
620.48 	0.0077831 	23137 
620.98 	0.0076765 	23137 
621.48 	0.0077831 	23137 
621.98 	0.0077831 	23137 
622.48 	0.0076765 	23137 
622.98 	0.0077831 	23137 
623.48 	0.0077831 	23137 
623.98 	0.0077831 	23137 
624.48 	0.0077831 	22971 
624.98 	0.0077831 	23137 
625.48 	0.0077831 	23304 
625.98 	0.0077831 	23137 
626.48 	0.0077831 	23137 
626.98 	0.0077831 	23137 
627.48 	0.0077831 	23137 
627.98 	0.0077831 	23137 
628.48 	0.0077831 	23137 
628.98 	0.0077831 	23137 
629.48 	0.0077831 	23137 
629.98 	0.0077831 	22971 
630.48 	0.0077831 	23137 
630.98 	0.0077831 	23137 
631.48 	0.0077831 	23137 
631.98 	0.0077831 	23137 
632.48 	0.0077831 	23137 
632.98 	0.0077831 	23137 
633.48 	0.0077831 	23137 
633.98 	0.0077831 	23304 
634.48 	0.0077831 	23137 
634.98 	0.0077831 	23137 
635.48 	0.0074633 	23137 
635.97 	0.0073566 	23137 
636.47 	0.0073566 	23137 
636.97 	0.0073566 	23137 
637.47 	0.0073566 	23304 
637.97 	0.0073566 	23137 
638.47 	0.0073566 	23137 
638.97 	0.0073566 	23137 
639.47 	0.0073566 	23304 
639.97 	0.0073566 	23137 
640.47 	0.0073566 	23137 
640.97 	0.0073566 	23137 
641.47 	0.0073566 	22971 
641.97 	0.0073566 	23137 
642.47 	0.0073566 	23304 
642.97 	0.0073566 	23137 
643.47 	0.0073566 	23137 
643.97 	0.0073566 	23137 
644.47 	0.0073566 	23137 
644.97 	0.0073566 	22971 
645.47 	0.0073566 	23137 
645.97 	0.0073566 	23137 
646.47 	0.0073566 	23137 
646.97 	0.0073566 	23137 
647.47 	0.0073566 	23137 
647.97 	0.0073566 	23137 
648.47 	0.0073566 	23137 
648.97 	0.0073566 	23137 
649.47 	0.0073566 	23137 
649.97 	0.0073566 	23137 
650.47 	0.0073566 	23137 
650.97 	0.0073566 	23137 
651.47 	0.0073566 	23137 
651.97 	0.0073566 	23137 
652.47 	0.0073566 	23137 
652.97 	0.0073566 	23137 
653.47 	0.0073566 	23137 
653.97 	0.0073566 	23137 
654.47 	0.0073566 	23137 
654.97 	0.0073566 	23137 
655.47 	0.0073566 	23304 
655.97 	0.0073566 	23137 
656.47 	0.0073566 	23137 
656.97 	0.0073566 	23137 
657.47 	0.0073566 	23137 
657.97 	0.0073566 	23137 
658.47 	0.0073566 	23137 
658.97 	0.0073566 	23137 
659.47 	0.0073566 	23137 
659.97 	0.0073566 	23137 
660.47 	0.0073566 	23137 
660.97 	0.0073566 	23304 
661.47 	0.0073566 	23137 
661.97 	0.0073566 	23137 
662.47 	0.0073566 	23137 
662.97 	0.0073566 	23137 
663.47 	0.0073566 	23304 
663.97 	0.0073566 	22971 
664.47 	0.0073566 	23137 
664.97 	0.0073566 	23137 
665.47 	0.0073566 	23137 
665.97 	0.0073566 	23137 
666.47 	0.0073566 	23137 
666.97 	0.0073566 	23137 
667.47 	0.0073566 	23137 
667.97 	0.0073566 	23304 
668.47 	0.0073566 	23137 
668.97 	0.0073566 	23137 
669.47 	0.0073566 	22971 
669.97 	0.0073566 	23137 
670.47 	0.0073566 	23137 
670.97 	0.0073566 	23137 
671.47 	0.0073566 	23137 
671.97 	0.0073566 	23137 
672.47 	0.0073566 	23137 
672.97 	0.0073566 	23137 
673.47 	0.0073566 	23137 
673.97 	0.0073566 	23137 
674.47 	0.0073566 	23137 
674.97 	0.0073566 	23137 
675.47 	0.0073566 	23137 
675.97 	0.0073566 	23137 
676.47 	0.0073566 	23137 
676.97 	0.0073566 	23304 
677.47 	0.0073566 	23304 
677.97 	0.0073566 	23137 
678.47 	0.0073566 	23137 
678.97 	0.0073566 	23137 
679.47 	0.0073566 	23137 
679.97 	0.0073566 	23137 
680.47 	0.0073566 	23137 
680.97 	0.0073566 	23137 
681.47 	0.0073566 	23137 
681.97 	0.0073566 	23137 
682.47 	0.0073566 	23137 
682.97 	0.0073566 	23137 
683.47 	0.0073566 	22971 
683.97 	0.0073566 	23137 
684.47 	0.0073566 	23137 
684.97 	0.0073566 	23137 
685.47 	0.0073566 	23137 
685.97 	0.0073566 	23137 
686.47 	0.0073566 	23137 
686.97 	0.0073566 	23137 
687.47 	0.0073566 	23137 
687.97 	0.0073566 	23137 
688.47 	0.0073566 	23137 
688.97 	0.0073566 	23137 
689.47 	0.0073566 	23137 
689.97 	0.0073566 	23137 
690.47 	0.0073566 	22971 
690.97 	0.0073566 	23137 
691.47 	0.0073566 	23137 
691.97 	0.0073566 	23137 
692.47 	0.0073566 	23137 
692.97 	0.0073566 	23137 
693.47 	0.0073566 	23137 
693.97 	0.0073566 	23137 
694.47 	0.0073566 	23304 
694.97 	0.0073566 	23137 
695.47 	0.0073566 	23137 
695.97 	0.0073566 	23137 
696.47 	0.0073566 	23137 
696.97 	0.0073566 	23137 
697.47 	0.0073566 	22971 
697.97 	0.0073566 	23137 
698.47 	0.0073566 	23137 
698.97 	0.0073566 	23137 
699.47 	0.0073566 	22971 
699.97 	0.0073566 	23137 
700.47 	0.0073566 	23137 
700.97 	0.0073566 	23304 
701.47 	0.0073566 	23137 
701.97 	0.0073566 	23137 
702.47 	0.0073566 	23137 
702.97 	0.0073566 	23137 
703.47 	0.0073566 	23137 
703.97 	0.0073566 	23304 
704.47 	0.0073566 	23304 
704.97 	0.0073566 	23137 
705.47 	0.0073566 	23137 
705.97 	0.0073566 	23137 
706.47 	0.0073566 	23137 
706.97 	0.0073566 	23137 
707.47 	0.0073566 	23137 
707.97 	0.0073566 	23137 
708.47 	0.0073566 	23137 
708.97 	0.0073566 	23137 
709.47 	0.0073566 	23137 
709.97 	0.0073566 	23137 
710.47 	0.0073566 	23137 
710.97 	0.0073566 	23137 
711.47 	0.0073566 	23137 
711.97 	0.0073566 	23137 
712.47 	0.0073566 	23137 
712.97 	0.0073566 	23137 
713.47 	0.0073566 	23304 
713.97 	0.0073566 	23137 
714.47 	0.0073566 	23137 
714.97 	0.0073566 	23137 
715.47 	0.0073566 	23137 
715.97 	0.0073566 	22971 
716.47 	0.0073566 	23137 
716.97 	0.0073566 	23137 
717.47 	0.0073566 	23137 
717.97 	0.0073566 	23137 
718.47 	0.0073566 	23137 
718.97 	0.0073566 	23137 
719.47 	0.0073566 	23137 
719.97 	0.0073566 	23137 
720.47 	0.0073566 	23137 
720.97 	0.0073566 	23137 
721.47 	0.0073566 	23137 
721.97 	0.0073566 	23304 
722.47 	0.0073566 	23304 
722.97 	0.0073566 	23137 
723.47 	0.0073566 	23137 
723.97 	0.0073566 	22971 
724.47 	0.0073566 	23137 
724.97 	0.0073566 	23137 
725.47 	0.0073566 	23137 
725.97 	0.0073566 	23137 
726.47 	0.0073566 	23304 
726.97 	0.0073566 	23137 
727.47 	0.0073566 	22971 
727.97 	0.0073566 	23137 
728.47 	0.0073566 	23137 
728.97 	0.0073566 	23137 
729.47 	0.0073566 	23137 
729.97 	0.0073566 	23137 
730.47 	0.0073566 	23137 
730.97 	0.0073566 	23137 
731.47 	0.0073566 	23137 
731.97 	0.0073566 	23137 
732.47 	0.0073566 	23137 
732.97 	0.0073566 	23137 
733.47 	0.0073566 	23137 
733.97 	0.0073566 	23137 
734.47 	0.0073566 	23137 
734.97 	0.0073566 	23137 
735.47 	0.0073566 	23137 
735.97 	0.0073566 	23137 
736.47 	0.0073566 	23137 
736.97 	0.0073566 	23137 
737.47 	0.0073566 	23137 
737.97 	0.0073566 	23304 
738.47 	0.0073566 	23137 
738.97 	0.0073566 	22971 
739.47 	0.0073566 	23137 
739.97 	0.0073566 	23137 
740.47 	0.0073566 	23304 
740.97 	0.0073566 	23137 
741.47 	0.0073566 	23137 
741.97 	0.0073566 	23137 
742.47 	0.0073566 	23137 
742.97 	0.0073566 	23137 
743.47 	0.0073566 	23137 
743.97 	0.0073566 	23137 
744.47 	0.0073566 	22971 
744.97 	0.0073566 	23304 
745.47 	0.0073566 	23137 
745.97 	0.0073566 	23137 
746.47 	0.0073566 	22971 
746.97 	0.0073566 	22971 
747.47 	0.0073566 	23137 
747.97 	0.0073566 	23137 
748.47 	0.0073566 	23137 
748.97 	0.0073566 	23137 
749.47 	0.0073566 	23137 
749.97 	0.0073566 	23304 
750.47 	0.0073566 	23637 
750.97 	0.0073566 	24136 
751.47 	0.0073566 	24469 
751.97 	0.0073566 	24802 
752.47 	0.0073566 	25301 
752.97 	0.0073566 	25801 
753.47 	0.0073566 	26300 
753.97 	0.0073566 	26800 
754.47 	0.0073566 	27465 
754.97 	0.0073566 	27965 
755.47 	0.0073566 	28464 
755.97 	0.0073566 	28797 
756.37 	0.0073566 	29463 
756.87 	0.0073566 	29962 
757.37 	0.0073566 	30462 
757.67 	0.0073566 	31127 
758.17 	0.0073566 	31627 
758.58 	0.0073566 	32293 
759.08 	0.0073566 	32792 
759.58 	0.0073566 	33291 
760.08 	0.0073566 	33791 
760.58 	0.0073566 	34290 
761.08 	0.0073566 	34789 
761.58 	0.0073566 	35289 
762.03 	0.0073566 	35955 
762.53 	0.0073566 	36288 
763.03 	0.0073566 	36787 
763.48 	0.0073566 	37453 
763.98 	0.0073566 	37786 
764.43 	0.0073566 	38452 
764.93 	0.0073566 	38951 
765.43 	0.0073566 	39450 
765.93 	0.0073566 	39950 
766.43 	0.0073566 	40449 
766.93 	0.0073566 	41115 
767.43 	0.0073566 	41614 
767.93 	0.0073566 	42114 
768.43 	0.0073566 	42613 
768.93 	0.0073566 	43279 
769.43 	0.0073566 	43612 
769.93 	0.0073566 	44111 
770.42 	0.0073566 	44777 
770.92 	0.0073566 	45110 
771.30 	0.0073566 	45776 
771.80 	0.0073566 	46109 
772.27 	0.0073566 	46774 
772.77 	0.0073566 	47274 
773.27 	0.0073566 	47773 
773.77 	0.0073566 	48272 
774.27 	0.0073566 	48772 
774.77 	0.0073566 	49271 
775.27 	0.0073566 	49771 
775.72 	0.0073566 	50436 
776.22 	0.0073566 	50769 
776.68 	0.0073566 	51435 
777.18 	0.0073566 	51935 
777.68 	0.0073566 	52434 
778.18 	0.0073566 	52933 
778.68 	0.0073566 	53433 
779.18 	0.0073566 	53932 
779.68 	0.0073566 	54598 
780.18 	0.0073566 	55097 
780.68 	0.0073566 	55597 
781.18 	0.0073566 	56096 
781.68 	0.0073566 	56595 
782.18 	0.0073566 	57095 
782.63 	0.0073566 	57761 
783.13 	0.0073566 	58260 
783.63 	0.0073566 	58593 
784.05 	0.0073566 	59259 
784.55 	0.0073566 	59592 
785.03 	0.0073566 	60257 
785.53 	0.0073566 	60757 
786.03 	0.0073566 	61256 
786.53 	0.0073566 	61755 
787.03 	0.0073566 	62255 
787.52 	0.0073566 	62921 
788.02 	0.0073566 	63420 
788.52 	0.0073566 	63919 
789.00 	0.0073566 	64585 
789.50 	0.0073566 	64918 
790.00 	0.0073566 	65584 
790.50 	0.0073566 	65917 
791.00 	0.0073566 	66416 
791.43 	0.0073566 	67082 
791.93 	0.0073566 	67415 
792.38 	0.0073566 	68081 
792.88 	0.0073566 	68580 
793.38 	0.0073566 	69080 
793.88 	0.0073566 	69579 
794.38 	0.0073566 	70078 
794.88 	0.0073566 	70578 
795.37 	0.0073566 	71244 
795.87 	0.0073566 	71576 
796.30 	0.0073566 	72242 
796.80 	0.0073566 	72742 
797.30 	0.0073566 	73241 
797.80 	0.0073566 	73740 
798.30 	0.0073566 	74240 
798.80 	0.0073566 	74906 
799.30 	0.0073566 	75238 
799.70 	0.0073566 	75904 
800.20 	0.0073566 	76237 
800.63 	0.0073566 	76903 
801.13 	0.0073566 	77236 
801.63 	0.0073566 	77735 
802.13 	0.0073566 	78401 
802.63 	0.0073566 	78901 
803.13 	0.0073566 	79400 
803.63 	0.0073566 	79899 
804.13 	0.0073566 	80399 
804.63 	0.0073566 	80898 
805.13 	0.0073566 	81564 
805.63 	0.0073566 	82063 
806.13 	0.0073566 	82563 
806.63 	0.0073566 	83062 
807.13 	0.0073566 	83561 
807.63 	0.0073566 	84227 
808.13 	0.0073566 	84560 
808.57 	0.0073566 	85226 
809.07 	0.0073566 	85559 
809.52 	0.0073566 	86225 
810.02 	0.0073566 	86724 
810.52 	0.0073566 	87223 
811.02 	0.0073566 	87723 
811.52 	0.0073566 	88222 
812.02 	0.0073566 	88721 
812.50 	0.0073566 	89387 
813.00 	0.0073566 	89720 
813.40 	0.0073566 	90386 
813.90 	0.0073566 	90719 
814.40 	0.0073566 	91218 
814.85 	0.0073566 	91884 
815.35 	0.0073566 	92217 
815.80 	0.0073566 	92883 
816.30 	0.0073566 	93382 
816.80 	0.0073566 	93882 
817.30 	0.0073566 	94381 
817.80 	0.0073566 	94880 
818.30 	0.0073566 	95380 
818.80 	0.0073566 	95879 
819.27 	0.0073566 	96545 
819.77 	0.0073566 	97044 
820.27 	0.0073566 	97544 
820.77 	0.0073566 	98043 
821.27 	0.0073566 	98542 
821.77 	0.0073566 	99208 
822.27 	0.0073566 	99708 
822.77 	0.0073566 	100210 
823.27 	0.0073566 	100710 
823.77 	0.0073566 	101210 
824.27 	0.0073566 	101870 
824.77 	0.0073566 	102370 
825.27 	0.0073566 	102870 
825.77 	0.0073566 	103370 
826.27 	0.0073566 	103870 
826.77 	0.0073566 	104370 
827.27 	0.0073566 	105030 
827.77 	0.0073566 	105370 
828.22 	0.0073566 	106030 
828.72 	0.0073566 	106370 
829.17 	0.0073566 	107030 
829.67 	0.0073566 	107360 
830.10 	0.0073566 	108030 
830.60 	0.0073566 	108360 
831.05 	0.0073566 	109030 
831.55 	0.0073566 	109360 
831.97 	0.0073566 	110030 
832.47 	0.0073566 	110360 
832.97 	0.0073566 	111030 
833.47 	0.0073566 	111530 
833.97 	0.0073566 	112030 
834.47 	0.0073566 	112520 
834.97 	0.0073566 	113020 
835.42 	0.0073566 	113690 
835.92 	0.0073566 	114190 
836.42 	0.0073566 	114520 
836.85 	0.0073566 	115190 
837.35 	0.0073566 	115690 
837.85 	0.0073566 	116190 
838.35 	0.0073566 	116690 
838.85 	0.0073566 	117190 
839.35 	0.0073566 	117680 
839.85 	0.0073566 	118180 
840.35 	0.0073566 	118680 
840.78 	0.0073566 	119350 
841.28 	0.0073566 	119850 
841.78 	0.0073566 	120350 
842.28 	0.0073566 	120850 
842.78 	0.0073566 	121180 
843.18 	0.0073566 	121850 
843.68 	0.0073566 	122350 
844.18 	0.0073566 	122850 
844.68 	0.0073566 	123340 
845.18 	0.0073566 	123840 
845.68 	0.0073566 	124510 
846.18 	0.0073566 	124840 
846.62 	0.0073566 	125510 
847.12 	0.0073566 	125840 
847.58 	0.0073566 	126510 
848.08 	0.0073566 	127010 
848.58 	0.0073566 	127510 
849.08 	0.0073566 	128010 
849.58 	0.0073566 	128500 
850.08 	0.0073566 	129000 
850.58 	0.0073566 	129500 
851.08 	0.0073566 	130000 
851.58 	0.0073566 	130500 
852.08 	0.0073566 	131170 
852.58 	0.0073566 	131670 
853.08 	0.0073566 	132170 
853.58 	0.0073566 	132670 
854.08 	0.0073566 	133170 
854.58 	0.0073566 	134000 
855.08 	0.0073566 	134500 
855.58 	0.0073566 	134830 
856.08 	0.0073566 	135330 
856.58 	0.0073566 	136000 
857.08 	0.0073566 	136490 
857.58 	0.0073566 	136990 
858.08 	0.0073566 	137490 
858.58 	0.0073566 	137990 
859.08 	0.0073566 	138660 
859.58 	0.0073566 	139160 
860.08 	0.0073566 	139660 
860.58 	0.0073566 	140160 
861.08 	0.0073566 	140660 
861.58 	0.0073566 	141160 
862.08 	0.0073566 	141820 
862.58 	0.0073566 	142320 
863.08 	0.0073566 	142820 
863.58 	0.0073566 	143320 
864.08 	0.0073566 	143820 
864.58 	0.0073566 	144480 
865.08 	0.0073566 	144820 
865.58 	0.0073566 	145480 
866.08 	0.0073566 	145980 
866.58 	0.0073566 	146480 
867.08 	0.0073566 	147150 
867.58 	0.0073566 	147650 
868.08 	0.0073566 	148150 
868.58 	0.0073566 	148650 
869.08 	0.0073566 	149150 
869.58 	0.0073566 	149810 
870.08 	0.0073566 	150310 
870.58 	0.0073566 	150810 
871.08 	0.0073566 	151310 
871.58 	0.0073566 	151810 
872.08 	0.0073566 	152310 
872.58 	0.0073566 	152970 
873.08 	0.0073566 	153470 
873.58 	0.0073566 	153970 
874.08 	0.0073566 	154470 
874.58 	0.0073566 	154970 
875.08 	0.0073566 	155470 
875.58 	0.0073566 	156140 
876.08 	0.0073566 	156640 
876.58 	0.0073566 	157140 
877.08 	0.0073566 	157630 
877.58 	0.0073566 	158130 
878.08 	0.0073566 	158630 
878.58 	0.0073566 	159130 
879.08 	0.0073566 	159800 
879.58 	0.0073566 	160300 
880.08 	0.0073566 	160800 
880.58 	0.0073566 	161300 
881.08 	0.0073566 	161960 
881.58 	0.0073566 	162460 
882.08 	0.0073566 	162790 
882.58 	0.0073566 	163460 
883.08 	0.0073566 	163960 
883.58 	0.0073566 	164460 
884.08 	0.0073566 	165130 
884.58 	0.0073566 	165620 
885.08 	0.0073566 	166120 
885.58 	0.0073566 	166790 
886.08 	0.0073566 	167120 
886.58 	0.0073566 	167620 
887.08 	0.0073566 	168120 
887.58 	0.0073566 	168790 
888.08 	0.0073566 	169290 
888.58 	0.0073566 	169790 
889.08 	0.0073566 	170290 
889.58 	0.0073566 	170950 
890.08 	0.0073566 	171450 
890.58 	0.0073566 	171950 
891.08 	0.0073566 	172450 
891.58 	0.0073566 	172950 
892.08 	0.0073566 	173450 
892.58 	0.0073566 	173950 
893.08 	0.0073566 	174610 
893.58 	0.0073566 	175110 
894.08 	0.0073566 	175610 
894.58 	0.0073566 	176110 
895.08 	0.0073566 	176780 
895.58 	0.0073566 	177280 
896.08 	0.0073566 	177780 
896.58 	0.0073566 	178280 
897.08 	0.0073566 	178770 
897.58 	0.0073566 	179270 
898.08 	0.0073566 	179770 
898.58 	0.0073566 	180440 
899.08 	0.0073566 	180940 
899.58 	0.0073566 	181600 
900.08 	0.0073566 	182100 
900.58 	0.0073566 	182440 
901.08 	0.0073566 	183100 
901.58 	0.0073566 	183600 
902.08 	0.0073566 	184100 
902.58 	0.0073566 	184600 
903.08 	0.0073566 	185100 
903.58 	0.0073566 	185600 
904.08 	0.0073566 	186100 
904.58 	0.0073566 	186760 
905.08 	0.0073566 	187260 
905.58 	0.0073566 	187930 
906.08 	0.0073566 	188260 
906.58 	0.0073566 	188760 
907.08 	0.0073566 	189430 
907.58 	0.0073566 	189930 
908.08 	0.0073566 	190430 
908.58 	0.0073566 	190930 
909.08 	0.0073566 	191590 
909.58 	0.0073566 	191920 
910.08 	0.0073566 	192590 
910.58 	0.0073566 	193090 
911.08 	0.0073566 	193590 
911.58 	0.0073566 	194090 
912.08 	0.0073566 	194590 
912.58 	0.0073566 	195250 
913.08 	0.0073566 	195750 
913.58 	0.0073566 	196250 
914.08 	0.0073566 	196750 
914.58 	0.0073566 	197420 
915.08 	0.0073566 	197920 
915.58 	0.0073566 	198420 
916.08 	0.0073566 	198920 
916.58 	0.0073566 	199420 
917.08 	0.0073566 	199910 
917.58 	0.0073566 	200410 
918.08 	0.0073566 	201080 
918.58 	0.0073566 	201410 
919.08 	0.0073566 	202080 
919.58 	0.0073566 	202580 
920.08 	0.0073566 	203240 
920.58 	0.0073566 	203740 
921.08 	0.0073566 	204240 
921.58 	0.0073566 	204580 
922.08 	0.0073566 	205410 
922.58 	0.0073566 	205740 
923.08 	0.0073566 	206240 
923.58 	0.0073566 	206740 
924.08 	0.0073566 	207410 
924.58 	0.0073566 	207740 
925.08 	0.0073566 	208400 
925.58 	0.0073566 	208900 
926.08 	0.0073566 	209570 
926.58 	0.0073566 	210070 
927.08 	0.0073566 	210570 
927.58 	0.0073566 	211070 
928.08 	0.0073566 	211570 
928.58 	0.0073566 	212230 
929.08 	0.0073566 	212730 
929.58 	0.0073566 	213060 
930.08 	0.0073566 	213730 
930.58 	0.0073566 	214230 
931.08 	0.0073566 	214730 
931.58 	0.0073566 	215230 
932.08 	0.0073566 	215890 
932.58 	0.0073566 	216390 
933.08 	0.0073566 	216890 
933.58 	0.0073566 	217230 
934.08 	0.0073566 	217890 
934.58 	0.0073566 	218560 
935.08 	0.0073566 	219060 
935.58 	0.0073566 	219560 
936.08 	0.0073566 	220060 
936.58 	0.0073566 	220560 
937.08 	0.0073566 	221220 
937.58 	0.0073566 	221550 
938.08 	0.0073566 	222220 
938.58 	0.0073566 	222720 
939.08 	0.0073566 	223220 
939.58 	0.0073566 	223720 
940.08 	0.0073566 	224380 
940.58 	0.0073566 	224720 
941.08 	0.0073566 	225380 
941.58 	0.0073566 	225880 
942.08 	0.0073566 	226380 
942.58 	0.0073566 	226880 
943.08 	0.0073566 	227550 
943.58 	0.0073566 	228050 
944.08 	0.0073566 	228550 
944.58 	0.0073566 	229040 
945.08 	0.0073566 	229540 
945.58 	0.0073566 	230040 
946.08 	0.0073566 	230710 
946.58 	0.0073566 	231040 
947.08 	0.0073566 	231710 
947.58 	0.0073566 	232210 
948.08 	0.0073566 	232710 
948.58 	0.0073566 	233370 
949.08 	0.0073566 	233710 
949.58 	0.0073566 	234200 
950.08 	0.0073566 	234870 
950.58 	0.0073566 	235540 
951.08 	0.0073566 	235870 
951.58 	0.0073566 	236540 
952.08 	0.0073566 	237030 
952.58 	0.0073566 	237530 
953.08 	0.0073566 	238030 
953.58 	0.0073566 	238700 
954.08 	0.0073566 	239030 
954.58 	0.0073566 	239700 
955.08 	0.0073566 	240030 
955.58 	0.0073566 	240700 
956.08 	0.0073566 	241200 
956.58 	0.0073566 	241700 
957.08 	0.0073566 	242190 
957.58 	0.0073566 	242860 
958.08 	0.0073566 	243360 
958.58 	0.0073566 	243860 
959.08 	0.0073566 	244360 
959.58 	0.0073566 	244860 
960.08 	0.0073566 	245360 
960.58 	0.0073566 	246020 
961.08 	0.0073566 	246520 
961.58 	0.0073566 	247020 
962.08 	0.0073566 	247520 
962.58 	0.0073566 	248020 
963.08 	0.0073566 	248690 
963.58 	0.0073566 	249190 
964.08 	0.0073566 	249690 
964.58 	0.0073566 	250180 
965.08 	0.0073566 	250680 
965.58 	0.0073566 	251350 
966.08 	0.0073566 	251850 
966.58 	0.0073566 	252350 
967.08 	0.0073566 	252850 
967.58 	0.0073566 	253350 
968.08 	0.0073566 	253850 
968.58 	0.0073566 	254510 
969.08 	0.0073566 	255010 
969.58 	0.0073566 	255510 
970.08 	0.0073566 	256010 
970.58 	0.0073566 	256680 
971.08 	0.0073566 	257010 
971.58 	0.0073566 	257510 
972.08 	0.0073566 	258170 
972.58 	0.0073566 	258670 
973.08 	0.0073566 	259170 
973.58 	0.0073566 	259840 
974.08 	0.0073566 	260340 
974.58 	0.0073566 	260840 
975.08 	0.0073566 	261340 
975.58 	0.0073566 	262000 
976.08 	0.0073566 	262340 
976.58 	0.0073566 	263000 
977.08 	0.0073566 	263330 
977.58 	0.0073566 	264000 
978.08 	0.0073566 	264500 
978.58 	0.0073566 	265000 
979.08 	0.0073566 	265670 
979.58 	0.0073566 	266160 
980.08 	0.0073566 	266660 
980.58 	0.0073566 	267160 
981.08 	0.0073566 	267660 
981.58 	0.0073566 	268160 
982.08 	0.0073566 	268660 
982.58 	0.0073566 	269330 
983.08 	0.0073566 	269830 
983.58 	0.0073566 	270330 
984.08 	0.0073566 	270830 
984.58 	0.0073566 	271320 
985.08 	0.0073566 	271820 
985.58 	0.0073566 	272320 
986.08 	0.0073566 	272990 
986.58 	0.0073566 	273490 
987.08 	0.0073566 	273990 
987.58 	0.0073566 	274490 
988.08 	0.0073566 	275150 
988.58 	0.0073566 	275650 
989.08 	0.0073566 	276150 
989.58 	0.0073566 	276650 
990.08 	0.0073566 	277150 
990.58 	0.0073566 	277820 
991.08 	0.0073566 	278150 
991.58 	0.0073566 	278820 
992.08 	0.0073566 	279310 
992.58 	0.0073566 	279810 
993.08 	0.0073566 	280310 
993.58 	0.0073566 	280810 
994.08 	0.0073566 	281310 
994.58 	0.0073566 	281980 
995.08 	0.0073566 	282480 
995.58 	0.0073566 	282980 
996.08 	0.0073566 	283480 
996.58 	0.0073566 	284140 
997.08 	0.0073566 	284470 
997.58 	0.0073566 	285140 
998.08 	0.0073566 	285640 
998.58 	0.0073566 	286140 
999.08 	0.0073566 	286810 
999.58 	0.0073566 	287300 
1000.1 	0.0073566 	287800 
1000.6 	0.0073566 	288300 
1001.1 	0.0073566 	288800 
1001.6 	0.0073566 	289300 
1002.1 	0.0073566 	289800 
1002.6 	0.0073566 	290300 
1003.1 	0.0073566 	290970 
1003.6 	0.0073566 	291470 
1004.1 	0.0073566 	291970 
1004.6 	0.0073566 	292460 
1005.1 	0.0073566 	292960 
1005.6 	0.0073566 	293630 
1006.1 	0.0073566 	294130 
1006.6 	0.0073566 	294630 
1007.1 	0.0073566 	295130 
1007.6 	0.0073566 	295790 
1008.1 	0.0073566 	296290 
1008.6 	0.0073566 	296630 
1009.1 	0.0073566 	297290 
1009.6 	0.0073566 	297790 
1010.1 	0.0073566 	298290 
1010.6 	0.0073566 	298790 
1011.1 	0.0073566 	299290 
1011.6 	0.0073566 	299960 
1012.1 	0.0073566 	300450 
1012.6 	0.0073566 	300950 
1013.1 	0.0073566 	301450 
1013.6 	0.0073566 	302120 
1014.1 	0.0073566 	302620 
1014.6 	0.0073566 	303120 
1015.1 	0.0073566 	303620 
1015.6 	0.0073566 	304120 
1016.1 	0.0073566 	304780 
1016.6 	0.0073566 	305280 
1017.1 	0.0073566 	305780 
1017.6 	0.0073566 	306280 
1018.1 	0.0073566 	306780 
1018.6 	0.0073566 	307280 
1019.1 	0.0073566 	307780 
1019.6 	0.0073566 	308280 
1020.1 	0.0073566 	308940 
1020.6 	0.0073566 	309440 
1021.1 	0.0073566 	309940 
1021.6 	0.0073566 	310440 
1022.1 	0.0073566 	310940 
1022.6 	0.0073566 	311610 
1023.1 	0.0073566 	312110 
1023.6 	0.0073566 	312610 
1024.1 	0.0073566 	313110 
1024.6 	0.0073566 	313600 
1025.1 	0.0073566 	314270 
1025.6 	0.0073566 	314600 
1026.1 	0.0073566 	315100 
1026.6 	0.0073566 	315770 
1027.1 	0.0073566 	316270 
1027.6 	0.0073566 	316770 
1028.1 	0.0073566 	317430 
1028.6 	0.0073566 	317930 
1029.1 	0.0073566 	318430 
1029.6 	0.0073566 	318930 
1030.1 	0.0073566 	319430 
1030.6 	0.0073566 	320100 
1031.1 	0.0073566 	320430 
1031.6 	0.0073566 	321100 
1032.1 	0.0073566 	321590 
1032.6 	0.0073566 	322090 
1033.1 	0.0073566 	322590 
1033.6 	0.0073566 	323260 
1034.1 	0.0073566 	323760 
1034.6 	0.0073566 	324260 
1035.1 	0.0073566 	324760 
1035.6 	0.0073566 	325260 
1036.1 	0.0073566 	325760 
1036.6 	0.0073566 	326420 
1037.1 	0.0073566 	326920 
1037.6 	0.0073566 	327420 
1038.1 	0.0073566 	327920 
1038.6 	0.0073566 	328420 
1039.1 	0.0073566 	329090 
1039.6 	0.0073566 	329580 
1040.1 	0.0073566 	330080 
1040.6 	0.0073566 	330580 
1041.1 	0.0073566 	331080 
1041.6 	0.0073566 	331580 
1042.1 	0.0073566 	332080 
1042.6 	0.0073566 	332750 
1043.1 	0.0073566 	333080 
1043.6 	0.0073566 	333750 
1044.1 	0.0073566 	334250 
1044.6 	0.0073566 	334740 
1045.1 	0.0073566 	335410 
1045.6 	0.0073566 	335740 
1046.1 	0.0073566 	336580 
1046.6 	0.0073566 	336910 
1047.1 	0.0073566 	337570 
1047.6 	0.0073566 	337910 
1048.1 	0.0073566 	338570 
1048.6 	0.0073566 	339070 
1049.1 	0.0073566 	339570 
1049.6 	0.0073566 	340240 
1050.1 	0.0073566 	340570 
1050.6 	0.0073566 	341070 
1051.1 	0.0073566 	341740 
1051.6 	0.0073566 	342240 
1052.1 	0.0073566 	342730 
1052.6 	0.0073566 	343230 
1053.1 	0.0073566 	343730 
1053.6 	0.0073566 	344400 
1054.1 	0.0073566 	344900 
1054.6 	0.0073566 	345400 
1055.1 	0.0073566 	345900 
1055.6 	0.0073566 	346400 
1056.1 	0.0073566 	347060 
1056.6 	0.0073566 	347560 
1057.1 	0.0073566 	347890 
1057.6 	0.0073566 	348560 
1058.1 	0.0073566 	349060 
1058.6 	0.0073566 	349560 
1059.1 	0.0073566 	350060 
1059.6 	0.0073566 	350720 
1060.1 	0.0073566 	351220 
1060.6 	0.0073566 	351720 
1061.1 	0.0073566 	352390 
1061.6 	0.0073566 	352720 
1062.1 	0.0073566 	353390 
1062.6 	0.0073566 	353890 
1063.1 	0.0073566 	354390 
1063.6 	0.0073566 	354890 
1064.1 	0.0073566 	355390 
1064.6 	0.0073566 	355880 
1065.1 	0.0073566 	356550 
1065.6 	0.0073566 	357050 
1066.1 	0.0073566 	357550 
1066.6 	0.0073566 	358050 
1067.1 	0.0073566 	358550 
1067.6 	0.0073566 	359050 
1068.1 	0.0073566 	359710 
1068.6 	0.0073566 	360210 
1069.1 	0.0073566 	360710 
1069.6 	0.0073566 	361210 
1070.1 	0.0073566 	361880 
1070.6 	0.0073566 	362380 
1071.1 	0.0073566 	362880 
1071.6 	0.0073566 	363380 
1072.1 	0.0073566 	363870 
1072.6 	0.0073566 	364540 
1073.1 	0.0073566 	365040 
1073.6 	0.0073566 	365540 
1074.1 	0.0073566 	366040 
1074.6 	0.0073566 	366540 
1075.1 	0.0073566 	367040 
1075.6 	0.0073566 	367540 
1076.1 	0.0073566 	368200 
1076.6 	0.0073566 	368700 
1077.1 	0.0073566 	369200 
1077.6 	0.0073566 	369700 
1078.1 	0.0073566 	370200 
1078.6 	0.0073566 	370700 
1079.1 	0.0073566 	371370 
1079.6 	0.0073566 	371860 
1080.1 	0.0073566 	372360 
1080.6 	0.0073566 	372860 
1081.1 	0.0073566 	373360 
1081.6 	0.0073566 	373860 
1082.1 	0.0073566 	374530 
1082.6 	0.0073566 	375030 
1083.1 	0.0073566 	375530 
1083.6 	0.0073566 	376030 
1084.1 	0.0073566 	376530 
1084.6 	0.0073566 	377190 
1085.1 	0.0073566 	377690 
1085.6 	0.0073566 	378190 
1086.1 	0.0073566 	378690 
1086.6 	0.0073566 	379190 
1087.1 	0.0073566 	379690 
1087.6 	0.0073566 	380350 
1088.1 	0.0073566 	380850 
1088.6 	0.0073566 	381350 
1089.1 	0.0073566 	381850 
1089.6 	0.0073566 	382350 
1090.1 	0.0073566 	382850 
1090.6 	0.0073566 	383520 
1091.1 	0.0073566 	384020 
1091.6 	0.0073566 	384520 
1092.1 	0.0073566 	385010 
1092.6 	0.0073566 	385510 
1093.1 	0.0073566 	386180 
1093.6 	0.0073566 	386680 
1094.1 	0.0073566 	387010 
1094.6 	0.0073566 	387680 
1095.1 	0.0073566 	388340 
1095.6 	0.0073566 	388680 
1096.1 	0.0073566 	389340 
1096.6 	0.0073566 	389840 
1097.1 	0.0073566 	390340 
1097.6 	0.0073566 	390840 
1098.1 	0.0073566 	391340 
1098.6 	0.0073566 	392010 
1099.1 	0.0073566 	392510 
1099.6 	0.0073566 	393000 
1100.1 	0.0073566 	393500 
1100.6 	0.0073566 	394000 
1101.1 	0.0073566 	394670 
1101.6 	0.0073566 	395170 
1102.1 	0.0073566 	395670 
1102.6 	0.0073566 	396170 
1103.1 	0.0073566 	396670 
1103.6 	0.0073566 	397170 
1104.1 	0.0073566 	397670 
1104.6 	0.0073566 	398330 
1105.1 	0.0073566 	398830 
1105.6 	0.0073566 	399330 
1106.1 	0.0073566 	399830 
1106.6 	0.0073566 	400500 
1107.1 	0.0073566 	400830 
1107.6 	0.0073566 	401330 
1108.1 	0.0073566 	401990 
1108.6 	0.0073566 	402490 
1109.1 	0.0073566 	403160 
1109.6 	0.0073566 	403490 
1110.1 	0.0073566 	404160 
1110.6 	0.0073566 	404660 
1111.1 	0.0073566 	405160 
1111.6 	0.0073566 	405660 
1112.1 	0.0073566 	406150 
1112.6 	0.0073566 	406650 
1113.1 	0.0073566 	407320 
1113.6 	0.0073566 	407820 
1114.1 	0.0073566 	408320 
1114.6 	0.0073566 	408820 
1115.1 	0.0073566 	409320 
1115.6 	0.0073566 	409820 
1116.1 	0.0073566 	410480 
1116.6 	0.0073566 	410980 
1117.1 	0.0073566 	411480 
1117.6 	0.0073566 	411980 
1118.1 	0.0073566 	412650 
1118.6 	0.0073566 	412980 
1119.1 	0.0073566 	413650 
1119.6 	0.0073566 	414140 
1120.1 	0.0073566 	414640 
1120.6 	0.0073566 	415140 
1121.1 	0.0073566 	415640 
1121.6 	0.0073566 	416310 
1122.1 	0.0073566 	416810 
1122.6 	0.0073566 	417310 
1123.1 	0.0073566 	417810 
1123.6 	0.0073566 	418470 
1124.1 	0.0073566 	418970 
1124.6 	0.0073566 	419470 
1125.1 	0.0073566 	419970 
1125.6 	0.0073566 	420470 
1126.1 	0.0073566 	421140 
1126.6 	0.0073566 	421640 
1127.1 	0.0073566 	421970 
1127.6 	0.0073566 	422630 
1128.1 	0.0073566 	423130 
1128.6 	0.0073566 	423630 
1129.1 	0.0073566 	424300 
1129.6 	0.0073566 	424800 
1130.1 	0.0073566 	425130 
1130.6 	0.0073566 	425800 
1131.1 	0.0073566 	426300 
1131.6 	0.0073566 	426800 
1132.1 	0.0073566 	427460 
1132.6 	0.0073566 	427960 
1133.1 	0.0073566 	428460 
1133.6 	0.0073566 	428960 
1134.1 	0.0073566 	429460 
1134.6 	0.0073566 	430120 
1135.1 	0.0073566 	430620 
1135.6 	0.0073566 	430960 
1136.1 	0.0073566 	431460 
1136.6 	0.0073566 	432120 
1137.1 	0.0073566 	432620 
1137.6 	0.0073566 	433290 
1138.1 	0.0073566 	433790 
1138.6 	0.0073566 	434290 
1139.1 	0.0073566 	434790 
1139.6 	0.0073566 	435280 
1140.1 	0.0073566 	435780 
1140.6 	0.0073566 	436280 
1141.1 	0.0073566 	436950 
1141.6 	0.0073566 	437280 
1142.1 	0.0073566 	437950 
1142.6 	0.0073566 	438450 
1143.1 	0.0073566 	438950 
1143.6 	0.0073566 	439450 
1144.1 	0.0073566 	440110 
1144.6 	0.0073566 	440440 
1145.1 	0.0073566 	441110 
1145.6 	0.0073566 	441610 
1146.1 	0.0073566 	442110 
1146.6 	0.0073566 	442610 
1147.1 	0.0073566 	443270 
1147.6 	0.0073566 	443770 
1148.1 	0.0073566 	444270 
1148.6 	0.0073566 	444770 
1149.1 	0.0073566 	445270 
1149.6 	0.0073566 	445770 
1150.1 	0.0073566 	446270 
1150.6 	0.0073566 	446940 
1151.1 	0.0073566 	447440 
1151.6 	0.0073566 	447940 
1152.1 	0.0073566 	448600 
1152.6 	0.0073566 	449100 
1153.1 	0.0073566 	449430 
1153.6 	0.0073566 	450100 
1154.1 	0.0073566 	450600 
1154.6 	0.0073566 	451100 
1155.1 	0.0073566 	451760 
1155.6 	0.0073566 	452100 
1156.1 	0.0073566 	452760 
1156.6 	0.0073566 	453260 
1157.1 	0.0073566 	453760 
1157.6 	0.0073566 	454430 
1158.1 	0.0073566 	454930 
1158.6 	0.0073566 	455260 
1159.1 	0.0073566 	455930 
1159.6 	0.0073566 	456420 
1159.9 	0.0073566 	445440 
1160.0 	0.0073566 	436120 
1160.0 	0.0073566 	441440 
1160.1 	0.0073566 	445270 
1160.2 	0.0073566 	448930 
1160.3 	0.0073566 	452430 
1160.5 	0.0073566 	455930 
1161.0 	0.0073566 	457590 
1161.5 	0.0073566 	458260 
1162.0 	0.0073566 	458590 
1162.4 	0.0073566 	454760 
1162.7 	0.0073566 	458090 
1162.8 	0.0073566 	445770 
1162.9 	0.0073566 	400830 
1162.9 	0.0073566 	239860 
