Tempo(s)	Deformação(mm)	Força(N)
0.016667 	-0.0001068 	499.37 
0.51667 	-0.0001068 	665.83 
1.0167 	-0.0001068 	832.28 
1.5167 	0.00000 	1165.2 
2.0167 	0.00010662 	1498.1 
2.5167 	0.00021324 	1997.5 
3.0167 	0.00021324 	2330.4 
3.4833 	0.00053309 	2996.2 
3.9833 	0.00063971 	3329.1 
4.4833 	0.00085294 	3995.0 
4.9833 	0.00095956 	4327.9 
5.3833 	0.00095956 	4993.7 
5.8500 	0.0010662 	5659.5 
6.2833 	0.0011728 	6325.4 
6.7833 	0.0012794 	6824.7 
7.2667 	0.0013860 	7490.6 
7.7667 	0.0014927 	7823.5 
8.1500 	0.0014927 	8489.3 
8.6500 	0.0017059 	8822.2 
9.1333 	0.0017059 	9488.0 
9.6333 	0.0019191 	9987.4 
10.133 	0.0020257 	10487 
10.633 	0.0021324 	10986 
11.133 	0.0022390 	11486 
11.600 	0.0023456 	12151 
12.100 	0.0025588 	12484 
12.600 	0.0026655 	12984 
13.100 	0.0027721 	13483 
13.600 	0.0028787 	13816 
14.100 	0.0028787 	14149 
14.600 	0.0030919 	14648 
14.883 	0.0030919 	15314 
15.333 	0.0033052 	15980 
15.833 	0.0036250 	16479 
16.333 	0.0036250 	17145 
16.833 	0.0038383 	17644 
17.333 	0.0039449 	18144 
17.833 	0.0039449 	18810 
18.333 	0.0041581 	19309 
18.833 	0.0043713 	19808 
19.333 	0.0045846 	20308 
19.833 	0.0045846 	20807 
20.333 	0.0046912 	21140 
20.833 	0.0047978 	21639 
21.300 	0.0051177 	22305 
21.800 	0.0051177 	22638 
22.300 	0.0051177 	23137 
22.800 	0.0053309 	23137 
23.300 	0.0053309 	23304 
23.800 	0.0052243 	23304 
24.300 	0.0053309 	23304 
24.800 	0.0053309 	23304 
25.300 	0.0052243 	23137 
25.800 	0.0053309 	23137 
26.300 	0.0052243 	23304 
26.800 	0.0053309 	23304 
27.300 	0.0053309 	23304 
27.800 	0.0052243 	23304 
28.300 	0.0054375 	23304 
28.800 	0.0054375 	23304 
29.300 	0.0053309 	23304 
29.800 	0.0054375 	23470 
30.300 	0.0053309 	23304 
30.800 	0.0053309 	23304 
31.300 	0.0053309 	23304 
31.800 	0.0053309 	23304 
32.300 	0.0053309 	23304 
32.800 	0.0053309 	23470 
33.300 	0.0054375 	23470 
33.800 	0.0052243 	23304 
34.300 	0.0052243 	23137 
34.800 	0.0053309 	23304 
35.300 	0.0053309 	23137 
35.800 	0.0053309 	23304 
36.300 	0.0054375 	23304 
36.800 	0.0053309 	23304 
37.300 	0.0052243 	23304 
37.800 	0.0053309 	23304 
38.300 	0.0053309 	23304 
38.800 	0.0052243 	23304 
39.300 	0.0053309 	23470 
39.800 	0.0054375 	23304 
40.300 	0.0052243 	23304 
40.800 	0.0053309 	23304 
41.300 	0.0053309 	23470 
41.800 	0.0053309 	23304 
42.300 	0.0052243 	23304 
42.800 	0.0053309 	23304 
43.300 	0.0054375 	23304 
43.800 	0.0052243 	23304 
44.300 	0.0052243 	23304 
44.800 	0.0052243 	23304 
45.300 	0.0053309 	23304 
45.800 	0.0053309 	23470 
46.300 	0.0053309 	23470 
46.800 	0.0054375 	23470 
47.300 	0.0053309 	23304 
47.800 	0.0053309 	23470 
48.300 	0.0052243 	23304 
48.800 	0.0053309 	23304 
49.300 	0.0054375 	23304 
49.800 	0.0053309 	23304 
50.300 	0.0052243 	23304 
50.800 	0.0052243 	23137 
51.300 	0.0052243 	23304 
51.800 	0.0053309 	23304 
52.300 	0.0053309 	23304 
52.800 	0.0053309 	23470 
53.300 	0.0053309 	23304 
53.800 	0.0053309 	23137 
54.300 	0.0053309 	23304 
54.800 	0.0053309 	23304 
55.300 	0.0053309 	23304 
55.800 	0.0053309 	23304 
56.300 	0.0053309 	23304 
56.800 	0.0052243 	23304 
57.300 	0.0052243 	23304 
57.800 	0.0052243 	23304 
58.300 	0.0053309 	23304 
58.800 	0.0053309 	23304 
59.300 	0.0053309 	23304 
59.800 	0.0053309 	23304 
60.300 	0.0052243 	23304 
60.800 	0.0053309 	23304 
61.300 	0.0054375 	23304 
61.800 	0.0053309 	23304 
62.300 	0.0052243 	23304 
62.800 	0.0053309 	23304 
63.300 	0.0053309 	23304 
63.800 	0.0052243 	23304 
64.300 	0.0053309 	23304 
64.800 	0.0054375 	23470 
65.300 	0.0052243 	23304 
65.800 	0.0052243 	23304 
66.300 	0.0051177 	23304 
66.800 	0.0052243 	23304 
67.300 	0.0052243 	23304 
67.800 	0.0053309 	23304 
68.300 	0.0054375 	23304 
68.800 	0.0053309 	23304 
69.300 	0.0053309 	23304 
69.800 	0.0053309 	23304 
70.300 	0.0052243 	23137 
70.800 	0.0052243 	23304 
71.300 	0.0052243 	23304 
71.800 	0.0052243 	23304 
72.300 	0.0053309 	23304 
72.800 	0.0053309 	23470 
73.300 	0.0053309 	23304 
73.800 	0.0053309 	23304 
74.300 	0.0053309 	23304 
74.800 	0.0053309 	23470 
75.300 	0.0052243 	23304 
75.800 	0.0052243 	23304 
76.300 	0.0052243 	23304 
76.800 	0.0053309 	23304 
77.300 	0.0053309 	23304 
77.800 	0.0053309 	23470 
78.300 	0.0052243 	23304 
78.800 	0.0052243 	23304 
79.300 	0.0052243 	23304 
79.800 	0.0052243 	23304 
80.300 	0.0052243 	23137 
80.800 	0.0052243 	23304 
81.300 	0.0052243 	23304 
81.800 	0.0052243 	23470 
82.300 	0.0052243 	23304 
82.800 	0.0051177 	23137 
83.300 	0.0050111 	22638 
83.767 	0.0050111 	21972 
84.267 	0.0049044 	21306 
84.767 	0.0046912 	20807 
85.267 	0.0044780 	20141 
85.767 	0.0044780 	19808 
86.217 	0.0041581 	19143 
86.717 	0.0040515 	18810 
87.217 	0.0040515 	18144 
87.717 	0.0039449 	17644 
88.217 	0.0037316 	17312 
88.583 	0.0035184 	16646 
89.083 	0.0034118 	16313 
89.583 	0.0034118 	15813 
90.083 	0.0031985 	15480 
90.583 	0.0030919 	15148 
91.083 	0.0030919 	14815 
91.583 	0.0029853 	14315 
91.867 	0.0028787 	13649 
92.367 	0.0026655 	13150 
92.767 	0.0024522 	12484 
93.267 	0.0024522 	11985 
93.750 	0.0021324 	11319 
94.250 	0.0021324 	10986 
94.733 	0.0019191 	10320 
95.233 	0.0018125 	9820.9 
95.733 	0.0015993 	9321.6 
96.233 	0.0014927 	8822.2 
96.700 	0.0013860 	8156.4 
97.200 	0.0012794 	7823.5 
97.683 	0.0010662 	7157.6 
98.183 	0.00095956 	6824.7 
98.650 	0.00085294 	6158.9 
99.150 	0.00074633 	5826.0 
99.650 	0.00063971 	5493.1 
100.15 	0.00053309 	4993.7 
100.38 	0.00042647 	4327.9 
100.88 	0.00031985 	3995.0 
101.38 	0.00021324 	3662.0 
101.82 	0.00010662 	2996.2 
102.32 	0.00000 	2663.3 
102.82 	-0.0001068 	2163.9 
103.32 	-0.0002136 	1831.0 
103.82 	-0.0003204 	1664.6 
104.32 	-0.0004273 	1664.6 
104.82 	-0.0004273 	1498.1 
105.32 	-0.0004273 	1498.1 
105.82 	-0.0004273 	1331.7 
106.32 	-0.0003204 	1331.7 
106.82 	-0.0004273 	1331.7 
107.32 	-0.0004273 	1331.7 
107.82 	-0.0004273 	1165.2 
108.32 	-0.0004273 	1331.7 
108.82 	-0.0003204 	1165.2 
109.32 	-0.0004273 	1165.2 
109.82 	-0.0004273 	1331.7 
110.32 	-0.0004273 	1331.7 
110.82 	-0.0003204 	1165.2 
111.32 	-0.0004273 	1165.2 
111.82 	-0.0003204 	1165.2 
112.32 	-0.0004273 	1331.7 
112.82 	-0.0004273 	1165.2 
113.32 	-0.0003204 	1165.2 
113.82 	-0.0003204 	1165.2 
114.32 	-0.0004273 	1165.2 
114.82 	-0.0003204 	1331.7 
115.32 	-0.0003204 	998.74 
115.82 	-0.0003204 	998.74 
116.32 	-0.0003204 	1165.2 
116.82 	-0.0003204 	1165.2 
117.32 	-0.0003204 	1165.2 
117.82 	-0.0003204 	1331.7 
118.32 	-0.0003204 	1165.2 
118.82 	-0.0003204 	1165.2 
119.32 	-0.0003204 	1165.2 
119.82 	-0.0003204 	1165.2 
120.32 	-0.0003204 	1331.7 
120.82 	-0.0003204 	1165.2 
121.32 	-0.0002136 	1165.2 
121.82 	-0.0003204 	1165.2 
122.32 	-0.0003204 	1331.7 
122.82 	-0.0002136 	1165.2 
123.32 	-0.0003204 	1165.2 
123.82 	-0.0003204 	1165.2 
124.32 	-0.0003204 	998.74 
124.82 	-0.0002136 	1165.2 
125.32 	-0.0003204 	1165.2 
125.82 	-0.0002136 	1165.2 
126.32 	-0.0003204 	1165.2 
126.82 	-0.0002136 	1331.7 
127.32 	-0.0002136 	1165.2 
127.82 	-0.0002136 	1165.2 
128.32 	-0.0003204 	1165.2 
128.82 	-0.0002136 	1331.7 
129.32 	-0.0003204 	1165.2 
129.82 	-0.0002136 	1165.2 
130.32 	-0.0002136 	1165.2 
130.82 	-0.0002136 	998.74 
131.32 	-0.0002136 	1165.2 
131.82 	-0.0002136 	1331.7 
132.32 	-0.0002136 	1165.2 
132.82 	-0.0002136 	1331.7 
133.32 	-0.0002136 	1165.2 
133.82 	-0.0002136 	1165.2 
134.32 	-0.0002136 	998.74 
134.82 	-0.0002136 	1165.2 
135.32 	-0.0002136 	1165.2 
135.82 	-0.0002136 	1165.2 
136.32 	-0.0002136 	1165.2 
136.82 	-0.0002136 	1165.2 
137.32 	-0.0002136 	1165.2 
137.82 	-0.0002136 	1165.2 
138.32 	-0.0002136 	1165.2 
138.82 	-0.0002136 	1165.2 
139.32 	-0.0002136 	1165.2 
139.82 	-0.0002136 	1165.2 
140.32 	-0.0002136 	1331.7 
140.82 	-0.0001068 	1165.2 
141.32 	-0.0002136 	1165.2 
141.82 	-0.0002136 	1165.2 
142.32 	-0.0002136 	1165.2 
142.82 	-0.0002136 	1165.2 
143.32 	-0.0002136 	1165.2 
143.82 	-0.0001068 	1331.7 
144.32 	-0.0002136 	1165.2 
144.82 	-0.0002136 	1165.2 
145.32 	-0.0002136 	1165.2 
145.82 	-0.0002136 	1165.2 
146.32 	-0.0002136 	1165.2 
146.82 	-0.0002136 	1165.2 
147.32 	-0.0002136 	1165.2 
147.82 	-0.0002136 	1165.2 
148.32 	-0.0002136 	1165.2 
148.82 	-0.0001068 	1165.2 
149.32 	-0.0002136 	1165.2 
149.82 	-0.0002136 	1165.2 
150.32 	-0.0002136 	1165.2 
150.82 	-0.0002136 	1165.2 
151.32 	-0.0002136 	1165.2 
151.82 	-0.0002136 	1165.2 
152.32 	-0.0002136 	1165.2 
152.82 	-0.0002136 	1165.2 
153.32 	-0.0002136 	1165.2 
153.82 	-0.0002136 	1165.2 
154.32 	-0.0002136 	1331.7 
154.82 	-0.0002136 	1165.2 
155.32 	-0.0002136 	1165.2 
155.82 	-0.0002136 	1165.2 
156.32 	-0.0002136 	1165.2 
156.82 	-0.0002136 	1165.2 
157.32 	-0.0002136 	1165.2 
157.82 	-0.0002136 	1165.2 
158.32 	-0.0002136 	1165.2 
158.82 	-0.0002136 	1165.2 
159.32 	-0.0002136 	1165.2 
159.82 	-0.0002136 	1165.2 
160.32 	-0.0002136 	1165.2 
160.82 	-0.0002136 	998.74 
161.32 	-0.0002136 	998.74 
161.82 	-0.0002136 	1331.7 
162.32 	-0.0002136 	1165.2 
162.82 	-0.0002136 	1165.2 
163.32 	-0.0002136 	998.74 
163.82 	-0.0002136 	1165.2 
164.32 	-0.0001068 	1165.2 
164.82 	-0.0002136 	1165.2 
165.32 	-0.0002136 	1165.2 
165.82 	-0.0001068 	1331.7 
166.32 	-0.0001068 	1664.6 
166.82 	0.00010662 	2163.9 
167.32 	0.00010662 	2663.3 
167.82 	0.00021324 	2996.2 
168.32 	0.00021324 	3495.6 
168.82 	0.00021324 	3995.0 
169.32 	0.00031985 	4494.3 
169.82 	0.00042647 	4827.2 
170.20 	0.00053309 	5493.1 
170.55 	0.00063971 	6158.9 
171.05 	0.00085294 	6658.3 
171.52 	0.00095956 	7324.1 
172.02 	0.0010662 	7657.0 
172.43 	0.0011728 	8322.8 
172.93 	0.0013860 	8822.2 
173.43 	0.0013860 	9155.1 
173.77 	0.0014927 	9820.9 
174.27 	0.0017059 	10154 
174.67 	0.0018125 	10820 
175.17 	0.0019191 	10986 
175.50 	0.0020257 	11652 
176.00 	0.0021324 	12151 
176.50 	0.0022390 	12651 
177.00 	0.0023456 	12984 
177.50 	0.0024522 	13483 
178.00 	0.0025588 	13816 
178.50 	0.0026655 	14149 
178.90 	0.0028787 	14815 
179.23 	0.0029853 	15480 
179.73 	0.0030919 	15980 
180.23 	0.0033052 	16646 
180.73 	0.0035184 	17145 
181.23 	0.0036250 	17644 
181.73 	0.0037316 	18144 
182.23 	0.0039449 	18810 
182.73 	0.0040515 	19309 
183.23 	0.0042647 	19642 
183.65 	0.0042647 	20308 
184.15 	0.0045846 	20807 
184.65 	0.0045846 	21140 
185.15 	0.0047978 	21639 
185.52 	0.0047978 	22305 
186.02 	0.0050111 	22638 
186.52 	0.0052243 	22971 
187.02 	0.0051177 	23137 
187.52 	0.0052243 	23304 
188.02 	0.0053309 	23304 
188.52 	0.0053309 	23137 
189.02 	0.0053309 	23304 
189.52 	0.0052243 	23137 
190.02 	0.0052243 	23137 
190.52 	0.0052243 	23304 
191.02 	0.0052243 	23304 
191.52 	0.0052243 	23304 
192.02 	0.0052243 	23304 
192.52 	0.0053309 	23470 
193.02 	0.0053309 	23304 
193.52 	0.0053309 	23137 
194.02 	0.0053309 	23304 
194.52 	0.0053309 	23137 
195.02 	0.0053309 	23304 
195.52 	0.0053309 	23304 
196.02 	0.0052243 	23304 
196.52 	0.0052243 	23304 
197.02 	0.0052243 	23304 
197.52 	0.0052243 	23304 
198.02 	0.0053309 	23304 
198.52 	0.0054375 	23470 
199.02 	0.0053309 	23304 
199.52 	0.0053309 	23304 
200.02 	0.0053309 	23304 
200.52 	0.0052243 	23304 
201.02 	0.0052243 	23304 
201.52 	0.0052243 	23304 
202.02 	0.0053309 	23304 
202.52 	0.0053309 	23304 
203.02 	0.0053309 	23304 
203.52 	0.0053309 	23304 
204.02 	0.0052243 	23470 
204.52 	0.0052243 	23304 
205.02 	0.0053309 	23304 
205.52 	0.0052243 	23304 
206.02 	0.0052243 	23304 
206.52 	0.0052243 	23304 
207.02 	0.0052243 	23304 
207.52 	0.0053309 	23304 
208.02 	0.0053309 	23304 
208.52 	0.0053309 	23304 
209.02 	0.0052243 	23304 
209.52 	0.0052243 	23304 
210.02 	0.0052243 	23304 
210.52 	0.0052243 	23304 
211.02 	0.0053309 	23304 
211.52 	0.0053309 	23304 
212.02 	0.0053309 	23304 
212.52 	0.0053309 	23304 
213.02 	0.0053309 	23304 
213.52 	0.0053309 	23304 
214.02 	0.0053309 	23304 
214.52 	0.0053309 	23304 
215.02 	0.0053309 	23304 
215.52 	0.0053309 	23304 
216.02 	0.0053309 	23304 
216.52 	0.0053309 	23304 
217.02 	0.0053309 	23304 
217.52 	0.0053309 	23137 
218.02 	0.0053309 	23304 
218.52 	0.0053309 	23304 
219.02 	0.0052243 	23304 
219.52 	0.0053309 	23304 
220.02 	0.0052243 	23304 
220.52 	0.0051177 	23304 
221.02 	0.0052243 	23304 
221.52 	0.0052243 	23137 
222.02 	0.0052243 	23304 
222.52 	0.0052243 	23304 
223.02 	0.0052243 	23304 
223.52 	0.0053309 	23304 
224.02 	0.0053309 	23304 
224.52 	0.0053309 	23304 
225.02 	0.0053309 	23304 
225.52 	0.0053309 	23304 
226.02 	0.0053309 	23304 
226.52 	0.0053309 	23304 
227.02 	0.0053309 	23304 
227.52 	0.0053309 	23304 
228.02 	0.0053309 	23304 
228.52 	0.0053309 	23304 
229.02 	0.0053309 	23304 
229.52 	0.0053309 	23304 
230.02 	0.0053309 	23304 
230.52 	0.0053309 	23304 
231.02 	0.0053309 	23304 
231.52 	0.0053309 	23304 
232.02 	0.0053309 	23304 
232.52 	0.0053309 	23304 
233.02 	0.0053309 	23304 
233.52 	0.0053309 	23304 
234.02 	0.0053309 	23304 
234.52 	0.0053309 	23304 
235.02 	0.0053309 	23304 
235.52 	0.0053309 	23137 
236.02 	0.0053309 	23304 
236.52 	0.0053309 	23304 
237.02 	0.0053309 	23304 
237.52 	0.0053309 	23304 
238.02 	0.0053309 	23304 
238.52 	0.0053309 	23304 
239.02 	0.0053309 	23304 
239.52 	0.0052243 	23304 
240.02 	0.0053309 	23137 
240.52 	0.0053309 	23304 
241.02 	0.0053309 	23304 
241.52 	0.0054375 	23304 
242.02 	0.0053309 	23304 
242.52 	0.0053309 	23304 
243.02 	0.0052243 	23304 
243.52 	0.0052243 	23304 
244.02 	0.0053309 	23304 
244.52 	0.0053309 	23304 
245.02 	0.0053309 	23304 
245.52 	0.0053309 	23304 
246.02 	0.0053309 	23304 
246.52 	0.0052243 	23304 
247.02 	0.0052243 	23137 
247.52 	0.0052243 	22805 
247.97 	0.0050111 	22139 
248.47 	0.0047978 	21639 
248.95 	0.0047978 	20974 
249.45 	0.0045846 	20474 
249.95 	0.0044780 	20141 
250.43 	0.0044780 	19475 
250.93 	0.0042647 	19143 
251.35 	0.0041581 	18477 
251.85 	0.0039449 	17977 
252.35 	0.0038383 	17478 
252.85 	0.0037316 	16979 
253.35 	0.0036250 	16479 
253.85 	0.0035184 	15980 
254.35 	0.0034118 	15647 
254.85 	0.0031985 	15148 
255.35 	0.0030919 	14815 
255.85 	0.0030919 	14648 
256.22 	0.0029853 	13982 
256.53 	0.0028787 	13317 
257.02 	0.0026655 	12651 
257.52 	0.0024522 	12318 
257.93 	0.0023456 	11652 
258.43 	0.0022390 	11153 
258.93 	0.0020257 	10653 
259.43 	0.0019191 	10154 
259.93 	0.0018125 	9654.5 
260.43 	0.0015993 	9155.1 
260.88 	0.0014927 	8489.3 
261.38 	0.0013860 	8156.4 
261.80 	0.0011728 	7490.6 
262.30 	0.0010662 	7324.1 
262.63 	0.00095956 	6658.3 
263.13 	0.00085294 	6491.8 
263.38 	0.00074633 	5826.0 
263.88 	0.00063971 	5493.1 
264.38 	0.00053309 	4993.7 
264.88 	0.00042647 	4494.3 
265.38 	0.00021324 	3995.0 
265.88 	0.00010662 	3662.0 
266.30 	0.00000 	2996.2 
266.80 	-0.0001068 	2663.3 
267.27 	-0.0002136 	1997.5 
267.77 	-0.0003204 	1997.5 
268.27 	-0.0004273 	1664.6 
268.77 	-0.0004273 	1498.1 
269.27 	-0.0005341 	1498.1 
269.77 	-0.0005341 	1331.7 
270.27 	-0.0005341 	1331.7 
270.77 	-0.0005341 	1498.1 
271.27 	-0.0006409 	1331.7 
271.77 	-0.0006409 	1165.2 
272.27 	-0.0006409 	1331.7 
272.77 	-0.0006409 	1165.2 
273.27 	-0.0006409 	1165.2 
273.77 	-0.0006409 	1165.2 
274.27 	-0.0006409 	1165.2 
274.77 	-0.0007478 	1165.2 
275.27 	-0.0006409 	1331.7 
275.77 	-0.0006409 	1165.2 
276.27 	-0.0006409 	1165.2 
276.77 	-0.0006409 	1331.7 
277.27 	-0.0006409 	1165.2 
277.77 	-0.0006409 	1165.2 
278.27 	-0.0006409 	1165.2 
278.77 	-0.0006409 	1165.2 
279.27 	-0.0006409 	1165.2 
279.77 	-0.0006409 	1165.2 
280.27 	-0.0006409 	1331.7 
280.77 	-0.0006409 	1165.2 
281.27 	-0.0006409 	1165.2 
281.77 	-0.0006409 	1165.2 
282.27 	-0.0006409 	1165.2 
282.77 	-0.0006409 	1165.2 
283.27 	-0.0006409 	1165.2 
283.77 	-0.0006409 	1165.2 
284.27 	-0.0005341 	1165.2 
284.77 	-0.0006409 	1165.2 
285.27 	-0.0006409 	1331.7 
285.77 	-0.0005341 	1165.2 
286.27 	-0.0006409 	1165.2 
286.77 	-0.0006409 	1165.2 
287.27 	-0.0006409 	1165.2 
287.77 	-0.0005341 	1165.2 
288.27 	-0.0006409 	1165.2 
288.77 	-0.0006409 	1331.7 
289.27 	-0.0006409 	1331.7 
289.77 	-0.0006409 	1165.2 
290.27 	-0.0006409 	998.74 
290.77 	-0.0005341 	1165.2 
291.27 	-0.0005341 	1165.2 
291.77 	-0.0005341 	1165.2 
292.27 	-0.0005341 	1331.7 
292.77 	-0.0005341 	1165.2 
293.27 	-0.0005341 	1165.2 
293.77 	-0.0006409 	1165.2 
294.27 	-0.0005341 	1165.2 
294.77 	-0.0005341 	1331.7 
295.27 	-0.0005341 	1165.2 
295.77 	-0.0005341 	1165.2 
296.27 	-0.0006409 	1165.2 
296.77 	-0.0005341 	1165.2 
297.27 	-0.0005341 	1331.7 
297.77 	-0.0005341 	1331.7 
298.27 	-0.0005341 	1165.2 
298.77 	-0.0005341 	1165.2 
299.27 	-0.0005341 	1165.2 
299.77 	-0.0005341 	1165.2 
300.27 	-0.0005341 	1165.2 
300.77 	-0.0005341 	1165.2 
301.27 	-0.0006409 	1165.2 
301.77 	-0.0006409 	1165.2 
302.27 	-0.0006409 	1165.2 
302.77 	-0.0005341 	1165.2 
303.27 	-0.0005341 	1331.7 
303.77 	-0.0005341 	1165.2 
304.27 	-0.0005341 	1331.7 
304.77 	-0.0005341 	1165.2 
305.27 	-0.0006409 	1165.2 
305.77 	-0.0005341 	1165.2 
306.27 	-0.0006409 	1165.2 
306.77 	-0.0005341 	1331.7 
307.27 	-0.0006409 	1165.2 
307.77 	-0.0006409 	1165.2 
308.27 	-0.0005341 	1165.2 
308.77 	-0.0005341 	1165.2 
309.27 	-0.0006409 	1331.7 
309.77 	-0.0005341 	1165.2 
310.27 	-0.0006409 	1165.2 
310.77 	-0.0005341 	1165.2 
311.27 	-0.0006409 	1165.2 
311.77 	-0.0006409 	1165.2 
312.27 	-0.0005341 	1165.2 
312.77 	-0.0006409 	1165.2 
313.27 	-0.0005341 	1165.2 
313.77 	-0.0006409 	1165.2 
314.27 	-0.0005341 	1165.2 
314.77 	-0.0005341 	1165.2 
315.27 	-0.0006409 	1165.2 
315.77 	-0.0005341 	1165.2 
316.27 	-0.0005341 	1165.2 
316.77 	-0.0005341 	1165.2 
317.27 	-0.0005341 	1331.7 
317.77 	-0.0005341 	1165.2 
318.27 	-0.0006409 	1165.2 
318.77 	-0.0006409 	1331.7 
319.27 	-0.0006409 	1165.2 
319.77 	-0.0005341 	1165.2 
320.27 	-0.0005341 	1165.2 
320.77 	-0.0006409 	1165.2 
321.27 	-0.0006409 	1165.2 
321.77 	-0.0006409 	1165.2 
322.27 	-0.0005341 	1165.2 
322.77 	-0.0005341 	1165.2 
323.27 	-0.0005341 	1165.2 
323.77 	-0.0005341 	998.74 
324.27 	-0.0006409 	1165.2 
324.77 	-0.0006409 	1165.2 
325.27 	-0.0005341 	1331.7 
325.77 	-0.0005341 	1331.7 
326.27 	-0.0005341 	1165.2 
326.77 	-0.0005341 	1165.2 
327.27 	-0.0006409 	1165.2 
327.77 	-0.0005341 	1165.2 
328.27 	-0.0006409 	1165.2 
328.77 	-0.0005341 	1165.2 
329.27 	-0.0005341 	1165.2 
329.77 	-0.0005341 	998.74 
330.27 	-0.0005341 	1498.1 
330.77 	-0.0004273 	1664.6 
331.27 	-0.0003204 	1997.5 
331.70 	-0.0002136 	2663.3 
332.20 	-0.0001068 	2829.8 
332.67 	-0.0001068 	3495.6 
333.17 	-0.0001068 	3662.0 
333.63 	0.00010662 	4327.9 
334.08 	0.00021324 	4993.7 
334.58 	0.00031985 	5326.6 
334.90 	0.00053309 	5992.4 
335.40 	0.00074633 	6658.3 
335.90 	0.00085294 	6991.2 
336.22 	0.00085294 	7657.0 
336.72 	0.0010662 	7989.9 
337.13 	0.0011728 	8655.8 
337.63 	0.0012794 	8988.7 
338.13 	0.0014927 	9488.0 
338.58 	0.0017059 	10154 
339.08 	0.0018125 	10653 
339.58 	0.0019191 	11153 
340.08 	0.0021324 	11652 
340.58 	0.0022390 	12151 
341.08 	0.0023456 	12651 
341.58 	0.0024522 	12984 
342.08 	0.0025588 	13483 
342.58 	0.0026655 	13649 
343.08 	0.0027721 	14315 
343.43 	0.0028787 	14981 
343.85 	0.0031985 	15647 
344.35 	0.0034118 	16146 
344.85 	0.0034118 	16646 
345.22 	0.0035184 	17312 
345.72 	0.0037316 	17644 
346.20 	0.0039449 	18310 
346.70 	0.0039449 	18810 
347.20 	0.0042647 	19309 
347.70 	0.0043713 	19808 
348.20 	0.0044780 	20308 
348.70 	0.0045846 	20807 
349.20 	0.0047978 	21140 
349.70 	0.0050111 	21639 
350.07 	0.0051177 	22305 
350.57 	0.0052243 	22805 
351.07 	0.0053309 	22971 
351.57 	0.0054375 	23137 
352.07 	0.0055441 	23304 
352.57 	0.0055441 	23304 
353.07 	0.0054375 	23304 
353.57 	0.0053309 	23304 
354.07 	0.0053309 	23304 
354.57 	0.0053309 	23304 
355.07 	0.0054375 	23137 
355.57 	0.0054375 	23304 
356.07 	0.0055441 	23304 
356.57 	0.0054375 	23304 
357.07 	0.0054375 	23304 
357.57 	0.0055441 	23304 
358.07 	0.0054375 	23304 
358.57 	0.0054375 	23304 
359.07 	0.0055441 	23304 
359.57 	0.0054375 	23137 
360.07 	0.0054375 	23470 
360.57 	0.0055441 	23304 
361.07 	0.0054375 	23304 
361.57 	0.0054375 	23304 
362.07 	0.0055441 	23304 
362.57 	0.0054375 	23304 
363.07 	0.0055441 	23304 
363.57 	0.0054375 	23137 
364.07 	0.0054375 	23137 
364.57 	0.0055441 	23304 
365.07 	0.0054375 	23470 
365.57 	0.0056508 	23470 
366.07 	0.0054375 	23304 
366.57 	0.0055441 	23304 
367.07 	0.0054375 	23304 
367.57 	0.0055441 	23304 
368.07 	0.0054375 	23304 
368.57 	0.0055441 	23304 
369.07 	0.0054375 	23304 
369.57 	0.0055441 	23470 
370.07 	0.0055441 	23304 
370.57 	0.0054375 	23304 
371.07 	0.0054375 	23304 
371.57 	0.0055441 	23304 
372.07 	0.0055441 	23470 
372.57 	0.0055441 	23304 
373.07 	0.0055441 	23304 
373.57 	0.0054375 	23304 
374.07 	0.0055441 	23304 
374.57 	0.0054375 	23304 
375.07 	0.0055441 	23304 
375.57 	0.0054375 	23304 
376.07 	0.0055441 	23304 
376.57 	0.0054375 	23304 
377.07 	0.0055441 	23304 
377.57 	0.0054375 	23304 
378.07 	0.0056508 	23137 
378.57 	0.0054375 	23304 
379.07 	0.0055441 	23304 
379.57 	0.0054375 	23304 
380.07 	0.0055441 	23304 
380.57 	0.0054375 	23304 
381.07 	0.0055441 	23304 
381.57 	0.0054375 	23304 
382.07 	0.0055441 	23137 
382.57 	0.0054375 	23304 
383.07 	0.0055441 	23304 
383.57 	0.0054375 	23304 
384.07 	0.0055441 	23304 
384.57 	0.0054375 	23304 
385.07 	0.0055441 	23304 
385.57 	0.0054375 	23304 
386.07 	0.0054375 	23137 
386.57 	0.0055441 	23304 
387.07 	0.0054375 	23304 
387.57 	0.0055441 	23304 
388.07 	0.0054375 	23304 
388.57 	0.0054375 	23304 
389.07 	0.0055441 	23304 
389.57 	0.0054375 	23304 
390.07 	0.0055441 	23304 
390.57 	0.0054375 	23304 
391.07 	0.0055441 	23470 
391.57 	0.0054375 	23304 
392.07 	0.0055441 	23304 
392.57 	0.0054375 	23137 
393.07 	0.0055441 	23304 
393.57 	0.0054375 	23304 
394.07 	0.0055441 	23304 
394.57 	0.0054375 	23304 
395.07 	0.0055441 	23304 
395.57 	0.0054375 	23304 
396.07 	0.0054375 	23304 
396.57 	0.0055441 	23304 
397.07 	0.0054375 	23304 
397.57 	0.0055441 	23304 
398.07 	0.0055441 	23304 
398.57 	0.0053309 	23304 
399.07 	0.0055441 	23470 
399.57 	0.0054375 	23304 
400.07 	0.0054375 	23304 
400.57 	0.0054375 	23304 
401.07 	0.0054375 	23304 
401.57 	0.0055441 	23304 
402.07 	0.0054375 	23304 
402.57 	0.0053309 	23304 
403.07 	0.0055441 	23304 
403.57 	0.0054375 	23304 
404.07 	0.0054375 	23304 
404.57 	0.0054375 	23304 
405.07 	0.0054375 	23304 
405.57 	0.0055441 	23304 
406.07 	0.0055441 	23304 
406.57 	0.0054375 	23304 
407.07 	0.0055441 	23304 
407.57 	0.0053309 	23470 
408.07 	0.0055441 	23304 
408.57 	0.0054375 	23304 
409.07 	0.0054375 	23304 
409.57 	0.0055441 	23304 
410.07 	0.0054375 	23304 
410.57 	0.0055441 	23304 
411.07 	0.0055441 	23304 
411.57 	0.0054375 	22971 
412.07 	0.0053309 	22638 
412.53 	0.0052243 	21972 
413.03 	0.0050111 	21473 
413.48 	0.0049044 	20807 
413.98 	0.0047978 	20308 
414.48 	0.0045846 	19808 
414.98 	0.0044780 	19309 
415.48 	0.0042647 	18810 
415.92 	0.0042647 	18144 
416.42 	0.0041581 	17811 
416.92 	0.0038383 	17145 
417.42 	0.0037316 	16812 
417.92 	0.0036250 	16313 
418.42 	0.0036250 	15813 
418.92 	0.0034118 	15314 
419.42 	0.0034118 	15148 
419.92 	0.0031985 	14815 
420.40 	0.0031985 	14149 
420.70 	0.0030919 	13483 
421.20 	0.0027721 	12984 
421.67 	0.0026655 	12318 
422.17 	0.0025588 	11818 
422.67 	0.0022390 	11319 
423.17 	0.0021324 	10820 
423.67 	0.0021324 	10320 
424.15 	0.0019191 	9654.5 
424.65 	0.0018125 	9321.6 
425.05 	0.0015993 	8655.8 
425.55 	0.0014927 	8322.8 
425.97 	0.0013860 	7657.0 
426.47 	0.0012794 	7324.1 
426.87 	0.0011728 	6658.3 
427.37 	0.00095956 	6158.9 
427.87 	0.00085294 	5992.4 
428.30 	0.00074633 	5326.6 
428.80 	0.00053309 	4993.7 
429.28 	0.00042647 	4327.9 
429.78 	0.00021324 	3995.0 
430.25 	0.00021324 	3329.1 
430.75 	0.00000 	2829.8 
431.25 	-0.0001068 	2330.4 
431.75 	-0.0003204 	1997.5 
432.25 	-0.0004273 	1664.6 
432.75 	-0.0005341 	1498.1 
433.25 	-0.0005341 	1498.1 
433.75 	-0.0006409 	1498.1 
434.25 	-0.0006409 	1498.1 
434.75 	-0.0007478 	1331.7 
435.25 	-0.0007478 	1331.7 
435.75 	-0.0007478 	1331.7 
436.25 	-0.0007478 	1331.7 
436.75 	-0.0007478 	1165.2 
437.25 	-0.0007478 	1331.7 
437.75 	-0.0007478 	1165.2 
438.25 	-0.0007478 	1165.2 
438.75 	-0.0007478 	1165.2 
439.25 	-0.0007478 	1331.7 
439.75 	-0.0007478 	1165.2 
440.25 	-0.0008546 	1165.2 
440.75 	-0.0008546 	1165.2 
441.25 	-0.0007478 	1331.7 
441.75 	-0.0008546 	1331.7 
442.25 	-0.0007478 	1165.2 
442.75 	-0.0007478 	1165.2 
443.25 	-0.0008546 	1165.2 
443.75 	-0.0008546 	1165.2 
444.25 	-0.0007478 	1165.2 
444.75 	-0.0007478 	998.74 
445.25 	-0.0007478 	1165.2 
445.75 	-0.0007478 	1331.7 
446.25 	-0.0007478 	1331.7 
446.75 	-0.0008546 	1165.2 
447.25 	-0.0008546 	1165.2 
447.75 	-0.0007478 	1165.2 
448.25 	-0.0007478 	1165.2 
448.75 	-0.0007478 	1165.2 
449.25 	-0.0007478 	1165.2 
449.75 	-0.0007478 	1165.2 
450.25 	-0.0007478 	1165.2 
450.75 	-0.0007478 	998.74 
451.25 	-0.0007478 	1165.2 
451.75 	-0.0007478 	1165.2 
452.25 	-0.0007478 	1165.2 
452.75 	-0.0007478 	1165.2 
453.25 	-0.0007478 	998.74 
453.75 	-0.0007478 	1165.2 
454.25 	-0.0007478 	1165.2 
454.75 	-0.0007478 	1165.2 
455.25 	-0.0007478 	1165.2 
455.75 	-0.0007478 	1165.2 
456.25 	-0.0007478 	1165.2 
456.75 	-0.0007478 	998.74 
457.25 	-0.0007478 	998.74 
457.75 	-0.0007478 	1165.2 
458.25 	-0.0007478 	1165.2 
458.75 	-0.0006409 	1331.7 
459.25 	-0.0007478 	1331.7 
459.75 	-0.0006409 	1165.2 
460.25 	-0.0007478 	998.74 
460.75 	-0.0007478 	1165.2 
461.25 	-0.0007478 	1165.2 
461.75 	-0.0007478 	1165.2 
462.25 	-0.0007478 	1165.2 
462.75 	-0.0007478 	1331.7 
463.25 	-0.0007478 	1165.2 
463.75 	-0.0007478 	1165.2 
464.25 	-0.0007478 	1165.2 
464.75 	-0.0007478 	1165.2 
465.25 	-0.0007478 	1165.2 
465.75 	-0.0007478 	1165.2 
466.25 	-0.0007478 	1165.2 
466.75 	-0.0007478 	1165.2 
467.25 	-0.0007478 	1165.2 
467.75 	-0.0007478 	1165.2 
468.25 	-0.0007478 	1165.2 
468.75 	-0.0007478 	998.74 
469.25 	-0.0007478 	1165.2 
469.75 	-0.0006409 	1165.2 
470.25 	-0.0007478 	1165.2 
470.75 	-0.0007478 	1165.2 
471.25 	-0.0007478 	1165.2 
471.75 	-0.0007478 	1165.2 
472.25 	-0.0007478 	1165.2 
472.75 	-0.0007478 	1165.2 
473.25 	-0.0007478 	1165.2 
473.75 	-0.0007478 	1165.2 
474.25 	-0.0007478 	1165.2 
474.75 	-0.0007478 	1165.2 
475.25 	-0.0007478 	1165.2 
475.75 	-0.0007478 	1165.2 
476.25 	-0.0007478 	998.74 
476.75 	-0.0007478 	1165.2 
477.25 	-0.0007478 	1165.2 
477.75 	-0.0007478 	1165.2 
478.25 	-0.0007478 	1165.2 
478.75 	-0.0007478 	998.74 
479.25 	-0.0007478 	998.74 
479.75 	-0.0007478 	1165.2 
480.25 	-0.0007478 	1165.2 
480.75 	-0.0007478 	1165.2 
481.25 	-0.0007478 	1165.2 
481.75 	-0.0007478 	1165.2 
482.25 	-0.0007478 	1331.7 
482.75 	-0.0007478 	1165.2 
483.25 	-0.0007478 	1165.2 
483.75 	-0.0007478 	1165.2 
484.25 	-0.0007478 	1165.2 
484.75 	-0.0007478 	1165.2 
485.25 	-0.0007478 	1165.2 
485.75 	-0.0007478 	1165.2 
486.25 	-0.0007478 	1165.2 
486.75 	-0.0007478 	1165.2 
487.25 	-0.0007478 	1165.2 
487.75 	-0.0007478 	1165.2 
488.25 	-0.0007478 	1165.2 
488.75 	-0.0007478 	1165.2 
489.25 	-0.0007478 	1165.2 
489.75 	-0.0007478 	1331.7 
490.25 	-0.0007478 	1165.2 
490.75 	-0.0008546 	1165.2 
491.25 	-0.0007478 	1165.2 
491.75 	-0.0007478 	1165.2 
492.25 	-0.0007478 	1165.2 
492.75 	-0.0007478 	1331.7 
493.25 	-0.0007478 	1165.2 
493.58 	-0.0007478 	1165.2 
494.08 	-0.0007478 	1165.2 
494.58 	-0.0007478 	1165.2 
495.08 	-0.0007478 	998.74 
495.58 	-0.0007478 	1165.2 
496.08 	-0.0007478 	1165.2 
496.58 	-0.0007478 	1165.2 
497.08 	-0.0007478 	1165.2 
497.58 	-0.0007478 	998.74 
498.08 	-0.0007478 	1165.2 
498.58 	-0.0007478 	1165.2 
499.08 	-0.0007478 	1165.2 
499.58 	-0.0007478 	1165.2 
500.08 	-0.0007478 	1331.7 
500.58 	-0.0007478 	1165.2 
501.08 	-0.0007478 	1165.2 
501.58 	-0.0007478 	1165.2 
502.08 	-0.0007478 	1165.2 
502.58 	-0.0007478 	1165.2 
503.08 	-0.0007478 	1165.2 
503.58 	-0.0007478 	1165.2 
504.08 	-0.0007478 	1165.2 
504.58 	-0.0007478 	1165.2 
505.08 	-0.0007478 	1165.2 
505.58 	-0.0007478 	1165.2 
506.08 	-0.0007478 	1165.2 
506.58 	-0.0007478 	1165.2 
507.08 	-0.0007478 	1165.2 
507.58 	-0.0007478 	1165.2 
508.08 	-0.0007478 	998.74 
508.58 	-0.0007478 	1165.2 
509.08 	-0.0007478 	1165.2 
509.58 	-0.0007478 	1331.7 
510.08 	-0.0007478 	1165.2 
510.58 	-0.0007478 	1165.2 
511.08 	-0.0007478 	998.74 
511.58 	-0.0007478 	1165.2 
512.08 	-0.0007478 	1165.2 
512.58 	-0.0007478 	1165.2 
513.08 	-0.0007478 	1331.7 
513.58 	-0.0007478 	1165.2 
514.08 	-0.0007478 	1165.2 
514.58 	-0.0007478 	998.74 
515.08 	-0.0007478 	998.74 
515.58 	-0.0007478 	1165.2 
516.08 	-0.0007478 	1165.2 
516.58 	-0.0007478 	1165.2 
517.08 	-0.0007478 	1165.2 
517.58 	-0.0007478 	1165.2 
518.08 	-0.0007478 	998.74 
518.58 	-0.0007478 	1165.2 
519.08 	-0.0007478 	1331.7 
519.58 	-0.0007478 	1331.7 
520.08 	-0.0007478 	1165.2 
520.58 	-0.0007478 	1165.2 
521.08 	-0.0007478 	1165.2 
521.58 	-0.0007478 	1165.2 
522.08 	-0.0007478 	1165.2 
522.58 	-0.0007478 	1165.2 
523.08 	-0.0007478 	1165.2 
523.57 	-0.0007478 	1165.2 
524.07 	-0.0007478 	1165.2 
524.57 	-0.0007478 	1165.2 
525.07 	-0.0007478 	1165.2 
525.57 	-0.0007478 	1498.1 
526.07 	-0.0006409 	1997.5 
526.57 	-0.0005341 	1997.5 
526.93 	-0.0004273 	2663.3 
527.43 	-0.0003204 	2996.2 
527.93 	-0.0002136 	3662.0 
528.43 	-0.0001068 	3828.5 
528.85 	0.00000 	4494.3 
529.35 	0.00021324 	4827.2 
529.75 	0.00042647 	5493.1 
530.13 	0.00053309 	6158.9 
530.58 	0.00074633 	6824.7 
531.08 	0.00085294 	7157.6 
531.48 	0.00095956 	7823.5 
531.98 	0.0011728 	8156.4 
532.45 	0.0012794 	8822.2 
532.95 	0.0013860 	9321.6 
533.45 	0.0017059 	9820.9 
533.88 	0.0017059 	10487 
534.38 	0.0019191 	10653 
534.80 	0.0020257 	11319 
535.30 	0.0022390 	11818 
535.80 	0.0023456 	12318 
536.30 	0.0025588 	12651 
536.80 	0.0025588 	13150 
537.30 	0.0027721 	13483 
537.80 	0.0028787 	13982 
538.30 	0.0029853 	14315 
538.55 	0.0030919 	14981 
538.98 	0.0034118 	15647 
539.48 	0.0036250 	16146 
539.93 	0.0036250 	16812 
540.43 	0.0038383 	17312 
540.93 	0.0039449 	17811 
541.43 	0.0042647 	18310 
541.93 	0.0044780 	18810 
542.37 	0.0045846 	19475 
542.87 	0.0045846 	19808 
543.37 	0.0047978 	20308 
543.87 	0.0050111 	20807 
544.37 	0.0051177 	21306 
544.87 	0.0053309 	21806 
545.35 	0.0055441 	22472 
545.85 	0.0056508 	22805 
546.35 	0.0058640 	23137 
546.85 	0.0058640 	23137 
547.35 	0.0058640 	23304 
547.85 	0.0058640 	23304 
548.35 	0.0059706 	23304 
548.85 	0.0059706 	23304 
549.35 	0.0058640 	23304 
549.85 	0.0058640 	23304 
550.35 	0.0059706 	23304 
550.85 	0.0058640 	23304 
551.35 	0.0059706 	23304 
551.85 	0.0058640 	23304 
552.35 	0.0059706 	23304 
552.85 	0.0059706 	23137 
553.35 	0.0058640 	23304 
553.85 	0.0058640 	23304 
554.35 	0.0059706 	23304 
554.85 	0.0060772 	23470 
555.35 	0.0059706 	23304 
555.85 	0.0059706 	23304 
556.35 	0.0059706 	23304 
556.85 	0.0059706 	23304 
557.35 	0.0059706 	23304 
557.85 	0.0058640 	23304 
558.35 	0.0059706 	23304 
558.85 	0.0059706 	23304 
559.35 	0.0059706 	23304 
559.85 	0.0059706 	23304 
560.35 	0.0058640 	23304 
560.85 	0.0059706 	23304 
561.35 	0.0060772 	23470 
561.85 	0.0060772 	23470 
562.35 	0.0059706 	23304 
562.85 	0.0059706 	23304 
563.35 	0.0059706 	23304 
563.85 	0.0059706 	23137 
564.35 	0.0059706 	23304 
564.85 	0.0059706 	23470 
565.35 	0.0060772 	23304 
565.85 	0.0060772 	23304 
566.35 	0.0060772 	23304 
566.85 	0.0059706 	23304 
567.35 	0.0059706 	23304 
567.85 	0.0059706 	23470 
568.35 	0.0059706 	23470 
568.85 	0.0059706 	23304 
569.35 	0.0059706 	23304 
569.85 	0.0059706 	23304 
570.35 	0.0059706 	23304 
570.85 	0.0059706 	23304 
571.35 	0.0059706 	23304 
571.85 	0.0060772 	23304 
572.35 	0.0059706 	23304 
572.85 	0.0060772 	23304 
573.35 	0.0060772 	23304 
573.85 	0.0059706 	23304 
574.35 	0.0060772 	23304 
574.85 	0.0060772 	23304 
575.35 	0.0060772 	23304 
575.85 	0.0060772 	23304 
576.35 	0.0060772 	23304 
576.85 	0.0060772 	23304 
577.35 	0.0060772 	23304 
577.85 	0.0060772 	23304 
578.35 	0.0059706 	23304 
578.85 	0.0059706 	23304 
579.35 	0.0059706 	23304 
579.85 	0.0059706 	23304 
580.35 	0.0059706 	23304 
580.85 	0.0059706 	23304 
581.35 	0.0058640 	23137 
581.85 	0.0059706 	23304 
582.35 	0.0059706 	23304 
582.85 	0.0059706 	23470 
583.35 	0.0060772 	23304 
583.85 	0.0059706 	23304 
584.35 	0.0060772 	23304 
584.85 	0.0059706 	23304 
585.35 	0.0060772 	23304 
585.85 	0.0060772 	23470 
586.35 	0.0060772 	23470 
586.85 	0.0060772 	23470 
587.35 	0.0060772 	23304 
587.85 	0.0059706 	23304 
588.35 	0.0059706 	23304 
588.85 	0.0059706 	23304 
589.35 	0.0059706 	23304 
589.85 	0.0059706 	23137 
590.35 	0.0060772 	23304 
590.85 	0.0060772 	23304 
591.35 	0.0060772 	23470 
591.85 	0.0060772 	23470 
592.35 	0.0060772 	23304 
592.85 	0.0060772 	23304 
593.35 	0.0059706 	23304 
593.85 	0.0059706 	23304 
594.35 	0.0059706 	23304 
594.85 	0.0059706 	23304 
595.35 	0.0059706 	23304 
595.85 	0.0059706 	23304 
596.35 	0.0059706 	23304 
596.85 	0.0059706 	23304 
597.35 	0.0060772 	23304 
597.85 	0.0060772 	23304 
598.35 	0.0060772 	23304 
598.85 	0.0060772 	23304 
599.35 	0.0059706 	23304 
599.85 	0.0059706 	23137 
600.35 	0.0059706 	23304 
600.85 	0.0059706 	23304 
601.35 	0.0060772 	23470 
601.85 	0.0060772 	23304 
602.35 	0.0060772 	23304 
602.85 	0.0059706 	23304 
603.35 	0.0059706 	23304 
603.85 	0.0059706 	23304 
604.35 	0.0060772 	23304 
604.85 	0.0060772 	23304 
605.35 	0.0059706 	23304 
605.85 	0.0059706 	23304 
605.90 	0.0059706 	23304 
606.40 	0.0059706 	23304 
606.90 	0.0060772 	23304 
607.40 	0.0060772 	23304 
607.90 	0.0059706 	23304 
608.40 	0.0060772 	23304 
608.90 	0.0060772 	23304 
609.40 	0.0060772 	23304 
609.90 	0.0060772 	23304 
610.40 	0.0060772 	23137 
610.90 	0.0060772 	23304 
611.40 	0.0060772 	23304 
611.90 	0.0060772 	23137 
612.40 	0.0060772 	23304 
612.90 	0.0061839 	23304 
613.40 	0.0060772 	23304 
613.90 	0.0060772 	23304 
614.40 	0.0060772 	23304 
614.90 	0.0060772 	23304 
615.40 	0.0060772 	23304 
615.90 	0.0060772 	23304 
616.40 	0.0059706 	23137 
616.90 	0.0060772 	23304 
617.40 	0.0060772 	23470 
617.90 	0.0059706 	23304 
618.40 	0.0060772 	23304 
618.90 	0.0060772 	23304 
619.40 	0.0060772 	23304 
619.90 	0.0060772 	23304 
620.40 	0.0060772 	23304 
620.90 	0.0060772 	23304 
621.40 	0.0060772 	23304 
621.90 	0.0060772 	23304 
622.40 	0.0059706 	23137 
622.90 	0.0059706 	23304 
623.40 	0.0060772 	23304 
623.90 	0.0060772 	23304 
624.40 	0.0059706 	23304 
624.90 	0.0060772 	23470 
625.40 	0.0060772 	23304 
625.90 	0.0060772 	23304 
626.40 	0.0059706 	23304 
626.90 	0.0059706 	23304 
627.40 	0.0060772 	23304 
627.90 	0.0060772 	23470 
628.40 	0.0059706 	23304 
628.90 	0.0060772 	23304 
629.40 	0.0060772 	23304 
629.90 	0.0060772 	23304 
630.40 	0.0060772 	23304 
630.90 	0.0060772 	23304 
631.40 	0.0059706 	23304 
631.90 	0.0059706 	23304 
632.40 	0.0060772 	23137 
632.90 	0.0060772 	23304 
633.40 	0.0059706 	23304 
633.90 	0.0060772 	23304 
634.40 	0.0060772 	23470 
634.90 	0.0059706 	23470 
635.40 	0.0060772 	23137 
635.90 	0.0059706 	23304 
636.40 	0.0059706 	23304 
636.90 	0.0059706 	23470 
637.40 	0.0059706 	23304 
637.90 	0.0059706 	23304 
638.40 	0.0059706 	23304 
638.90 	0.0059706 	23304 
639.40 	0.0059706 	23304 
639.90 	0.0059706 	23304 
640.40 	0.0059706 	23304 
640.90 	0.0059706 	23304 
641.40 	0.0059706 	23304 
641.90 	0.0059706 	23304 
642.40 	0.0059706 	23304 
642.90 	0.0059706 	23304 
643.40 	0.0059706 	23304 
643.90 	0.0059706 	23304 
644.40 	0.0059706 	23304 
644.90 	0.0059706 	23304 
645.40 	0.0059706 	23304 
645.90 	0.0059706 	23304 
646.40 	0.0059706 	23304 
646.90 	0.0059706 	23304 
647.40 	0.0059706 	23304 
647.90 	0.0059706 	23470 
648.40 	0.0059706 	23304 
648.90 	0.0059706 	23304 
649.40 	0.0059706 	23304 
649.90 	0.0059706 	23304 
650.40 	0.0059706 	23304 
650.90 	0.0059706 	23304 
651.40 	0.0059706 	23470 
651.90 	0.0059706 	23304 
652.40 	0.0059706 	23304 
652.90 	0.0059706 	23304 
653.40 	0.0059706 	23304 
653.90 	0.0059706 	23304 
654.40 	0.0059706 	23304 
654.90 	0.0059706 	23304 
655.40 	0.0059706 	23304 
655.90 	0.0059706 	23304 
656.40 	0.0059706 	23137 
656.90 	0.0059706 	23304 
657.40 	0.0059706 	23304 
657.90 	0.0059706 	23304 
658.40 	0.0059706 	23304 
658.90 	0.0059706 	23304 
659.40 	0.0059706 	23304 
659.90 	0.0059706 	23304 
660.40 	0.0059706 	23304 
660.90 	0.0059706 	23304 
661.40 	0.0059706 	23304 
661.90 	0.0059706 	23470 
662.40 	0.0059706 	23304 
662.90 	0.0059706 	23304 
663.40 	0.0059706 	23137 
663.90 	0.0059706 	23304 
664.40 	0.0059706 	23470 
664.90 	0.0059706 	23304 
665.40 	0.0059706 	23470 
665.90 	0.0059706 	23304 
666.40 	0.0059706 	23304 
666.90 	0.0059706 	23304 
667.40 	0.0059706 	23304 
667.90 	0.0059706 	23304 
668.40 	0.0059706 	23304 
668.90 	0.0059706 	23304 
669.40 	0.0059706 	23304 
669.90 	0.0059706 	23470 
670.40 	0.0059706 	23304 
670.90 	0.0059706 	23304 
671.40 	0.0059706 	23304 
671.90 	0.0059706 	23304 
672.40 	0.0059706 	23304 
672.90 	0.0059706 	23304 
673.40 	0.0059706 	23304 
673.90 	0.0059706 	23304 
674.40 	0.0059706 	23304 
674.90 	0.0059706 	23137 
675.40 	0.0059706 	23304 
675.90 	0.0059706 	23304 
676.40 	0.0059706 	23304 
676.90 	0.0059706 	23304 
677.40 	0.0059706 	23304 
677.90 	0.0059706 	23304 
678.40 	0.0059706 	23304 
678.90 	0.0059706 	23304 
679.40 	0.0059706 	23304 
679.90 	0.0059706 	23304 
680.40 	0.0059706 	23304 
680.90 	0.0059706 	23304 
681.40 	0.0059706 	23304 
681.90 	0.0059706 	23304 
682.40 	0.0059706 	23304 
682.90 	0.0059706 	23304 
683.40 	0.0059706 	23304 
683.90 	0.0059706 	23304 
684.40 	0.0059706 	23304 
684.90 	0.0059706 	23304 
685.40 	0.0059706 	23304 
685.90 	0.0059706 	23304 
686.40 	0.0059706 	23304 
686.90 	0.0059706 	23304 
687.40 	0.0059706 	23304 
687.90 	0.0059706 	23304 
688.40 	0.0059706 	23304 
688.90 	0.0059706 	23304 
689.40 	0.0059706 	23304 
689.90 	0.0059706 	23304 
690.40 	0.0059706 	23304 
690.90 	0.0059706 	23304 
691.40 	0.0059706 	23470 
691.90 	0.0059706 	23304 
692.40 	0.0059706 	23304 
692.90 	0.0059706 	23304 
693.40 	0.0059706 	23304 
693.90 	0.0059706 	23304 
694.40 	0.0059706 	23470 
694.90 	0.0059706 	23304 
695.40 	0.0059706 	23304 
695.90 	0.0059706 	23304 
696.40 	0.0059706 	23137 
696.90 	0.0059706 	23137 
697.40 	0.0059706 	23470 
697.90 	0.0059706 	23304 
698.40 	0.0059706 	23304 
698.90 	0.0059706 	23304 
699.40 	0.0059706 	23304 
699.90 	0.0059706 	23304 
700.40 	0.0059706 	23304 
700.90 	0.0059706 	23470 
701.40 	0.0059706 	23470 
701.90 	0.0059706 	23304 
702.40 	0.0059706 	23304 
702.90 	0.0059706 	23304 
703.40 	0.0059706 	23470 
703.90 	0.0059706 	23304 
704.40 	0.0059706 	23304 
704.90 	0.0059706 	23304 
705.40 	0.0059706 	23304 
705.90 	0.0059706 	23304 
706.40 	0.0059706 	23304 
706.90 	0.0059706 	23304 
707.40 	0.0059706 	23304 
707.90 	0.0059706 	23304 
708.40 	0.0059706 	23304 
708.90 	0.0059706 	23304 
709.40 	0.0059706 	23304 
709.90 	0.0059706 	23304 
710.40 	0.0059706 	23304 
710.90 	0.0059706 	23304 
711.40 	0.0059706 	23470 
711.90 	0.0059706 	23304 
712.40 	0.0059706 	23304 
712.90 	0.0059706 	23137 
713.40 	0.0059706 	23470 
713.90 	0.0059706 	23470 
714.40 	0.0059706 	23304 
714.90 	0.0059706 	23304 
715.40 	0.0059706 	23470 
715.90 	0.0059706 	23304 
716.40 	0.0059706 	23304 
716.90 	0.0059706 	23304 
717.40 	0.0059706 	23304 
717.90 	0.0059706 	23304 
718.40 	0.0059706 	23304 
718.90 	0.0059706 	23304 
719.40 	0.0059706 	23304 
719.90 	0.0059706 	23304 
720.40 	0.0059706 	23304 
720.90 	0.0059706 	23304 
721.40 	0.0059706 	23304 
721.90 	0.0059706 	23304 
722.40 	0.0059706 	23470 
722.90 	0.0059706 	23304 
723.40 	0.0059706 	23304 
723.90 	0.0059706 	23304 
724.40 	0.0059706 	23304 
724.90 	0.0059706 	23304 
725.40 	0.0059706 	23470 
725.90 	0.0059706 	23304 
726.40 	0.0059706 	23304 
726.90 	0.0059706 	23304 
727.40 	0.0059706 	23137 
727.90 	0.0059706 	23304 
728.40 	0.0059706 	23470 
728.90 	0.0059706 	23470 
729.40 	0.0059706 	23304 
729.90 	0.0059706 	23137 
730.40 	0.0059706 	23304 
730.90 	0.0059706 	23304 
731.40 	0.0059706 	23304 
731.90 	0.0059706 	23304 
732.40 	0.0059706 	23470 
732.90 	0.0059706 	23304 
733.40 	0.0059706 	23304 
733.90 	0.0059706 	23304 
734.40 	0.0059706 	23304 
734.90 	0.0059706 	23304 
735.40 	0.0059706 	23304 
735.90 	0.0059706 	23304 
736.40 	0.0059706 	23304 
736.90 	0.0059706 	23304 
737.40 	0.0059706 	23137 
737.90 	0.0059706 	23304 
738.40 	0.0059706 	23304 
738.90 	0.0059706 	23304 
739.40 	0.0059706 	23304 
739.90 	0.0059706 	23304 
740.40 	0.0059706 	23304 
740.90 	0.0059706 	23304 
741.40 	0.0059706 	23304 
741.90 	0.0059706 	23304 
742.40 	0.0059706 	23304 
742.90 	0.0059706 	23304 
743.40 	0.0059706 	23304 
743.90 	0.0059706 	23304 
744.40 	0.0059706 	23304 
744.90 	0.0059706 	23304 
745.40 	0.0059706 	23304 
745.90 	0.0059706 	23137 
746.40 	0.0059706 	23304 
746.90 	0.0059706 	23304 
747.40 	0.0059706 	23304 
747.90 	0.0059706 	23304 
748.40 	0.0059706 	23304 
748.90 	0.0059706 	23304 
749.40 	0.0059706 	23304 
749.90 	0.0059706 	23304 
750.40 	0.0059706 	23304 
750.90 	0.0059706 	23304 
751.40 	0.0059706 	23304 
751.90 	0.0059706 	23470 
752.40 	0.0059706 	23304 
752.90 	0.0059706 	23304 
753.40 	0.0059706 	23304 
753.90 	0.0059706 	23304 
754.40 	0.0059706 	23304 
754.90 	0.0059706 	23304 
755.40 	0.0059706 	23304 
755.90 	0.0059706 	23304 
756.40 	0.0059706 	23304 
756.90 	0.0059706 	23470 
757.40 	0.0059706 	23304 
757.90 	0.0059706 	23304 
758.40 	0.0059706 	23304 
758.90 	0.0059706 	23304 
759.40 	0.0059706 	23304 
759.90 	0.0059706 	23304 
760.40 	0.0059706 	23304 
760.90 	0.0059706 	23304 
761.40 	0.0059706 	23304 
761.90 	0.0059706 	23304 
762.40 	0.0059706 	23304 
762.90 	0.0059706 	23304 
763.40 	0.0059706 	23304 
763.90 	0.0059706 	23304 
764.40 	0.0059706 	23304 
764.90 	0.0059706 	23304 
765.40 	0.0059706 	23304 
765.90 	0.0059706 	23470 
766.40 	0.0059706 	23304 
766.90 	0.0059706 	23304 
767.40 	0.0059706 	23304 
767.90 	0.0059706 	23304 
768.40 	0.0059706 	23304 
768.90 	0.0059706 	23470 
769.40 	0.0059706 	23304 
769.90 	0.0059706 	23304 
770.40 	0.0059706 	23470 
770.90 	0.0059706 	23304 
771.40 	0.0059706 	23304 
771.90 	0.0059706 	23304 
772.40 	0.0059706 	23304 
772.90 	0.0059706 	23304 
773.40 	0.0059706 	23470 
773.90 	0.0059706 	23304 
774.40 	0.0059706 	23304 
774.90 	0.0059706 	23304 
775.40 	0.0059706 	23470 
775.90 	0.0059706 	23304 
776.40 	0.0059706 	23304 
776.90 	0.0059706 	23304 
777.40 	0.0059706 	23304 
777.90 	0.0059706 	23304 
778.40 	0.0059706 	23304 
778.90 	0.0059706 	23304 
779.40 	0.0059706 	23304 
779.90 	0.0059706 	23304 
780.40 	0.0059706 	23304 
780.90 	0.0059706 	23470 
781.30 	0.0059706 	24136 
781.80 	0.0059706 	24636 
782.30 	0.0059706 	25135 
782.80 	0.0059706 	25634 
783.30 	0.0059706 	25967 
783.72 	0.0059706 	26633 
784.22 	0.0059706 	26966 
784.72 	0.0059706 	27632 
785.22 	0.0059706 	27965 
785.72 	0.0059706 	28631 
786.22 	0.0059706 	28963 
786.72 	0.0059706 	29463 
787.22 	0.0059706 	29796 
787.72 	0.0059706 	30295 
788.22 	0.0059706 	30795 
788.72 	0.0059706 	31294 
789.20 	0.0059706 	31960 
789.70 	0.0059706 	32459 
790.10 	0.0059706 	33125 
790.60 	0.0059706 	33624 
791.07 	0.0059706 	34290 
791.57 	0.0059706 	34789 
792.02 	0.0059706 	35455 
792.52 	0.0059706 	35788 
793.00 	0.0059706 	36454 
793.50 	0.0059706 	36953 
794.00 	0.0059706 	37453 
794.50 	0.0059706 	38119 
795.00 	0.0059706 	38618 
795.50 	0.0059706 	38951 
795.92 	0.0059706 	39617 
796.42 	0.0059706 	40116 
796.92 	0.0059706 	40615 
797.42 	0.0059706 	41115 
797.92 	0.0059706 	41614 
798.42 	0.0059706 	42114 
798.92 	0.0059706 	42779 
799.42 	0.0059706 	43279 
799.92 	0.0059706 	43778 
800.42 	0.0059706 	44278 
800.92 	0.0059706 	44777 
801.40 	0.0059706 	45443 
801.90 	0.0059706 	45942 
802.40 	0.0059706 	46441 
802.90 	0.0059706 	46941 
803.40 	0.0059706 	47440 
803.90 	0.0059706 	47940 
804.33 	0.0059706 	48605 
804.83 	0.0059706 	48938 
805.30 	0.0059706 	49604 
805.80 	0.0059706 	49937 
806.25 	0.0059706 	50603 
806.75 	0.0059706 	51102 
807.25 	0.0059706 	51602 
807.75 	0.0059706 	52101 
808.25 	0.0059706 	52600 
808.73 	0.0059706 	53266 
809.23 	0.0059706 	53766 
809.73 	0.0059706 	54265 
810.23 	0.0059706 	54764 
810.73 	0.0059706 	55264 
811.23 	0.0059706 	55763 
811.70 	0.0059706 	56429 
812.20 	0.0059706 	56762 
812.68 	0.0059706 	57428 
813.18 	0.0059706 	57927 
813.68 	0.0059706 	58426 
814.18 	0.0059706 	59092 
814.68 	0.0059706 	59425 
815.13 	0.0059706 	60091 
815.63 	0.0059706 	60424 
816.13 	0.0059706 	61090 
816.63 	0.0059706 	61589 
817.13 	0.0059706 	62088 
817.63 	0.0059706 	62421 
817.97 	0.0059706 	63087 
818.47 	0.0059706 	63586 
818.97 	0.0059706 	63919 
819.40 	0.0059706 	64585 
819.90 	0.0059706 	65085 
820.40 	0.0059706 	65584 
820.90 	0.0059706 	66083 
821.40 	0.0059706 	66583 
821.88 	0.0059706 	67249 
822.38 	0.0059706 	67581 
822.80 	0.0059706 	68247 
823.30 	0.0059706 	68580 
823.77 	0.0059706 	69246 
824.27 	0.0059706 	69745 
824.77 	0.0059706 	70245 
825.27 	0.0059706 	70744 
825.77 	0.0059706 	71410 
826.27 	0.0059706 	71743 
826.75 	0.0059706 	72409 
827.25 	0.0059706 	72908 
827.75 	0.0059706 	73407 
828.25 	0.0059706 	73907 
828.75 	0.0059706 	74406 
829.25 	0.0059706 	74906 
829.70 	0.0059706 	75571 
830.20 	0.0059706 	75904 
830.67 	0.0059706 	76570 
831.17 	0.0059706 	77069 
831.67 	0.0059706 	77569 
832.17 	0.0059706 	78068 
832.67 	0.0059706 	78568 
833.17 	0.0059706 	79067 
833.63 	0.0059706 	79733 
834.13 	0.0059706 	80066 
834.60 	0.0059706 	80732 
835.10 	0.0059706 	81231 
835.60 	0.0059706 	81730 
836.10 	0.0059706 	82230 
836.60 	0.0059706 	82729 
837.03 	0.0059706 	83395 
837.53 	0.0059706 	83728 
838.03 	0.0059706 	84227 
838.50 	0.0059706 	84893 
839.00 	0.0059706 	85392 
839.50 	0.0059706 	85892 
840.00 	0.0059706 	86391 
840.50 	0.0059706 	86890 
840.98 	0.0059706 	87556 
841.48 	0.0059706 	88056 
841.98 	0.0059706 	88389 
842.40 	0.0059706 	89054 
842.90 	0.0059706 	89387 
843.37 	0.0059706 	90053 
843.87 	0.0059706 	90552 
844.37 	0.0059706 	91052 
844.87 	0.0059706 	91551 
845.35 	0.0059706 	92217 
845.85 	0.0059706 	92550 
846.25 	0.0059706 	93216 
846.75 	0.0059706 	93549 
847.25 	0.0059706 	94048 
847.65 	0.0059706 	94714 
848.15 	0.0059706 	95047 
848.65 	0.0059706 	95546 
849.12 	0.0059706 	96212 
849.62 	0.0059706 	96545 
850.07 	0.0059706 	97211 
850.57 	0.0059706 	97710 
851.07 	0.0059706 	98043 
851.50 	0.0059706 	98709 
852.00 	0.0059706 	99208 
852.48 	0.0059706 	99874 
852.98 	0.0059706 	100040 
853.38 	0.0059706 	100710 
853.88 	0.0059706 	101040 
854.30 	0.0059706 	101710 
854.80 	0.0059706 	102200 
855.30 	0.0059706 	102700 
855.80 	0.0059706 	103040 
856.20 	0.0059706 	103700 
856.70 	0.0059706 	104200 
857.20 	0.0059706 	104700 
857.70 	0.0059706 	105200 
858.20 	0.0059706 	105700 
858.70 	0.0059706 	106200 
859.13 	0.0059706 	106870 
859.63 	0.0059706 	107200 
860.08 	0.0059706 	107860 
860.58 	0.0059706 	108360 
861.08 	0.0059706 	108700 
861.48 	0.0059706 	109360 
861.98 	0.0059706 	109700 
862.45 	0.0059706 	110360 
862.95 	0.0059706 	110690 
863.42 	0.0059706 	111360 
863.92 	0.0059706 	111860 
864.42 	0.0059706 	112360 
864.92 	0.0059706 	112860 
865.42 	0.0059706 	113520 
865.92 	0.0059706 	113860 
866.38 	0.0059706 	114520 
866.88 	0.0059706 	115020 
867.38 	0.0059706 	115520 
867.88 	0.0059706 	116020 
868.38 	0.0059706 	116690 
868.88 	0.0059706 	117020 
869.38 	0.0059706 	117680 
869.88 	0.0059706 	118180 
870.38 	0.0059706 	118520 
870.80 	0.0059706 	119180 
871.30 	0.0059706 	119680 
871.80 	0.0059706 	120180 
872.30 	0.0059706 	120680 
872.73 	0.0059706 	121350 
873.23 	0.0059706 	121680 
873.73 	0.0059706 	122180 
874.23 	0.0059706 	122850 
874.73 	0.0059706 	123340 
875.23 	0.0059706 	123840 
875.73 	0.0059706 	124340 
876.23 	0.0059706 	125010 
876.73 	0.0059706 	125510 
877.23 	0.0059706 	126010 
877.73 	0.0059706 	126510 
878.23 	0.0059706 	127010 
878.73 	0.0059706 	127510 
879.23 	0.0059706 	128010 
879.73 	0.0059706 	128670 
880.23 	0.0059706 	129170 
880.73 	0.0059706 	129670 
881.23 	0.0059706 	130170 
881.73 	0.0059706 	130840 
882.23 	0.0059706 	131330 
882.73 	0.0059706 	131830 
883.23 	0.0059706 	132330 
883.73 	0.0059706 	132830 
884.23 	0.0059706 	133500 
884.73 	0.0059706 	134000 
885.23 	0.0059706 	134500 
885.73 	0.0059706 	135000 
886.23 	0.0059706 	135500 
886.73 	0.0059706 	136000 
887.23 	0.0059706 	136490 
887.73 	0.0059706 	137160 
888.23 	0.0059706 	137660 
888.73 	0.0059706 	138330 
889.23 	0.0059706 	138660 
889.73 	0.0059706 	139160 
890.23 	0.0059706 	139660 
890.73 	0.0059706 	140160 
891.23 	0.0059706 	140820 
891.73 	0.0059706 	141320 
892.23 	0.0059706 	141990 
892.73 	0.0059706 	142320 
893.23 	0.0059706 	142990 
893.73 	0.0059706 	143490 
894.23 	0.0059706 	143990 
894.73 	0.0059706 	144650 
895.23 	0.0059706 	145150 
895.73 	0.0059706 	145650 
896.23 	0.0059706 	145980 
896.73 	0.0059706 	146810 
897.23 	0.0059706 	147310 
897.73 	0.0059706 	147810 
898.23 	0.0059706 	148150 
898.73 	0.0059706 	148810 
899.23 	0.0059706 	149310 
899.73 	0.0059706 	149810 
900.23 	0.0059706 	150310 
900.73 	0.0059706 	150980 
901.23 	0.0059706 	151480 
901.73 	0.0059706 	151980 
902.23 	0.0059706 	152470 
902.73 	0.0059706 	152970 
903.23 	0.0059706 	153640 
903.73 	0.0059706 	154140 
904.23 	0.0059706 	154640 
904.73 	0.0059706 	155300 
905.23 	0.0059706 	155640 
905.73 	0.0059706 	156300 
906.23 	0.0059706 	156800 
906.73 	0.0059706 	157300 
907.23 	0.0059706 	157800 
907.73 	0.0059706 	158300 
908.23 	0.0059706 	158970 
908.73 	0.0059706 	159470 
909.23 	0.0059706 	159960 
909.73 	0.0059706 	160460 
910.23 	0.0059706 	160960 
910.73 	0.0059706 	161460 
911.23 	0.0059706 	162130 
911.73 	0.0059706 	162460 
912.23 	0.0059706 	163290 
912.73 	0.0059706 	163630 
913.23 	0.0059706 	164130 
913.73 	0.0059706 	164630 
914.23 	0.0059706 	165290 
914.73 	0.0059706 	165620 
915.23 	0.0059706 	166290 
915.73 	0.0059706 	166960 
916.23 	0.0059706 	167460 
916.73 	0.0059706 	167950 
917.23 	0.0059706 	168450 
917.73 	0.0059706 	168950 
918.23 	0.0059706 	169450 
918.73 	0.0059706 	170120 
919.23 	0.0059706 	170620 
919.73 	0.0059706 	171120 
920.23 	0.0059706 	171620 
920.73 	0.0059706 	172120 
921.23 	0.0059706 	172620 
921.73 	0.0059706 	173280 
922.23 	0.0059706 	173780 
922.73 	0.0059706 	174280 
923.23 	0.0059706 	174780 
923.73 	0.0059706 	175280 
924.23 	0.0059706 	175940 
924.73 	0.0059706 	176440 
925.23 	0.0059706 	176940 
925.73 	0.0059706 	177440 
926.23 	0.0059706 	177940 
926.73 	0.0059706 	178610 
927.23 	0.0059706 	178940 
927.73 	0.0059706 	179610 
928.23 	0.0059706 	180110 
928.73 	0.0059706 	180610 
929.23 	0.0059706 	181100 
929.73 	0.0059706 	181770 
930.23 	0.0059706 	182270 
930.73 	0.0059706 	182770 
931.23 	0.0059706 	183270 
931.73 	0.0059706 	183770 
932.23 	0.0059706 	184270 
932.73 	0.0059706 	184770 
933.23 	0.0059706 	185430 
933.73 	0.0059706 	185930 
934.23 	0.0059706 	186430 
934.73 	0.0059706 	187100 
935.23 	0.0059706 	187600 
935.73 	0.0059706 	188100 
936.23 	0.0059706 	188600 
936.73 	0.0059706 	189090 
937.23 	0.0059706 	189590 
937.73 	0.0059706 	190260 
938.23 	0.0059706 	190760 
938.73 	0.0059706 	191260 
939.23 	0.0059706 	191760 
939.73 	0.0059706 	192260 
940.23 	0.0059706 	192920 
940.73 	0.0059706 	193260 
941.23 	0.0059706 	193920 
941.73 	0.0059706 	194420 
942.23 	0.0059706 	194920 
942.73 	0.0059706 	195590 
943.23 	0.0059706 	196090 
943.73 	0.0059706 	196590 
944.23 	0.0059706 	197080 
944.73 	0.0059706 	197580 
945.23 	0.0059706 	198250 
945.73 	0.0059706 	198750 
946.23 	0.0059706 	199250 
946.73 	0.0059706 	199750 
947.23 	0.0059706 	200250 
947.73 	0.0059706 	200910 
948.23 	0.0059706 	201410 
948.73 	0.0059706 	201910 
949.23 	0.0059706 	202410 
949.73 	0.0059706 	202910 
950.23 	0.0059706 	203410 
950.73 	0.0059706 	204080 
951.23 	0.0059706 	204580 
951.73 	0.0059706 	205070 
952.23 	0.0059706 	205570 
952.73 	0.0059706 	206070 
953.23 	0.0059706 	206570 
953.73 	0.0059706 	207240 
954.23 	0.0059706 	207740 
954.73 	0.0059706 	208240 
955.23 	0.0059706 	208740 
955.73 	0.0059706 	209400 
956.23 	0.0059706 	209740 
956.73 	0.0059706 	210400 
957.23 	0.0059706 	210900 
957.73 	0.0059706 	211570 
958.23 	0.0059706 	211900 
958.73 	0.0059706 	212570 
959.23 	0.0059706 	213060 
959.73 	0.0059706 	213560 
960.23 	0.0059706 	214060 
960.73 	0.0059706 	214730 
961.23 	0.0059706 	215230 
961.73 	0.0059706 	215560 
962.23 	0.0059706 	216230 
962.73 	0.0059706 	216730 
963.23 	0.0059706 	217230 
963.73 	0.0059706 	217730 
964.23 	0.0059706 	218220 
964.73 	0.0059706 	218890 
965.23 	0.0059706 	219390 
965.73 	0.0059706 	219890 
966.23 	0.0059706 	220560 
966.73 	0.0059706 	220890 
967.23 	0.0059706 	221550 
967.73 	0.0059706 	222050 
968.23 	0.0059706 	222550 
968.73 	0.0059706 	223050 
969.23 	0.0059706 	223720 
969.73 	0.0059706 	224220 
970.23 	0.0059706 	224720 
970.73 	0.0059706 	225220 
971.23 	0.0059706 	225720 
971.73 	0.0059706 	226210 
972.23 	0.0059706 	226880 
972.73 	0.0059706 	227380 
973.23 	0.0059706 	227880 
973.73 	0.0059706 	228380 
974.23 	0.0059706 	229040 
974.73 	0.0059706 	229540 
975.23 	0.0059706 	230040 
975.73 	0.0059706 	230540 
976.23 	0.0059706 	231040 
976.73 	0.0059706 	231710 
977.23 	0.0059706 	232040 
977.73 	0.0059706 	232710 
978.23 	0.0059706 	233210 
978.73 	0.0059706 	233710 
979.23 	0.0059706 	234200 
979.73 	0.0059706 	234700 
980.23 	0.0059706 	235370 
980.73 	0.0059706 	235870 
981.23 	0.0059706 	236370 
981.73 	0.0059706 	236870 
982.23 	0.0059706 	237530 
982.73 	0.0059706 	238030 
983.23 	0.0059706 	238530 
983.73 	0.0059706 	239030 
984.23 	0.0059706 	239530 
984.73 	0.0059706 	240030 
985.23 	0.0059706 	240530 
985.73 	0.0059706 	241200 
986.23 	0.0059706 	241700 
986.73 	0.0059706 	242190 
987.23 	0.0059706 	242690 
987.73 	0.0059706 	243190 
988.23 	0.0059706 	243860 
988.73 	0.0059706 	244360 
989.23 	0.0059706 	244860 
989.73 	0.0059706 	245360 
990.23 	0.0059706 	246020 
990.73 	0.0059706 	246520 
991.23 	0.0059706 	247020 
991.73 	0.0059706 	247520 
992.23 	0.0059706 	248020 
992.73 	0.0059706 	248520 
993.23 	0.0059706 	249190 
993.73 	0.0059706 	249690 
994.23 	0.0059706 	250180 
994.73 	0.0059706 	250680 
995.23 	0.0059706 	251180 
995.73 	0.0059706 	251850 
996.23 	0.0059706 	252350 
996.73 	0.0059706 	253010 
997.23 	0.0059706 	253350 
997.73 	0.0059706 	253850 
998.23 	0.0059706 	254510 
998.73 	0.0059706 	255010 
999.23 	0.0059706 	255510 
999.73 	0.0059706 	256010 
1000.2 	0.0059706 	256510 
1000.7 	0.0059706 	257010 
1001.2 	0.0059706 	257680 
1001.7 	0.0059706 	258170 
1002.2 	0.0059706 	258670 
1002.7 	0.0059706 	259170 
1003.2 	0.0059706 	259670 
1003.7 	0.0059706 	260170 
1004.2 	0.0059706 	260840 
1004.7 	0.0059706 	261340 
1005.2 	0.0059706 	261840 
1005.7 	0.0059706 	262340 
1006.2 	0.0059706 	263000 
1006.7 	0.0059706 	263330 
1007.2 	0.0059706 	264000 
1007.7 	0.0059706 	264500 
1008.2 	0.0059706 	265170 
1008.7 	0.0059706 	265670 
1009.2 	0.0059706 	266160 
1009.7 	0.0059706 	266660 
1010.2 	0.0059706 	267160 
1010.7 	0.0059706 	267660 
1011.2 	0.0059706 	268160 
1011.7 	0.0059706 	268660 
1012.2 	0.0059706 	269330 
1012.7 	0.0059706 	269660 
1013.2 	0.0059706 	270330 
1013.7 	0.0059706 	270990 
1014.2 	0.0059706 	271490 
1014.7 	0.0059706 	271990 
1015.2 	0.0059706 	272490 
1015.7 	0.0059706 	272990 
1016.2 	0.0059706 	273490 
1016.7 	0.0059706 	273990 
1017.2 	0.0059706 	274650 
1017.7 	0.0059706 	274990 
1018.2 	0.0059706 	275650 
1018.7 	0.0059706 	276150 
1019.2 	0.0059706 	276820 
1019.7 	0.0059706 	277320 
1020.2 	0.0059706 	277820 
1020.7 	0.0059706 	278320 
1021.2 	0.0059706 	278820 
1021.7 	0.0059706 	279480 
1022.2 	0.0059706 	279810 
1022.7 	0.0059706 	280310 
1023.2 	0.0059706 	280980 
1023.7 	0.0059706 	281640 
1024.2 	0.0059706 	281980 
1024.7 	0.0059706 	282480 
1025.2 	0.0059706 	282980 
1025.7 	0.0059706 	283640 
1026.2 	0.0059706 	284140 
1026.7 	0.0059706 	284640 
1027.2 	0.0059706 	285310 
1027.7 	0.0059706 	285640 
1028.2 	0.0059706 	286310 
1028.7 	0.0059706 	286810 
1029.2 	0.0059706 	287300 
1029.7 	0.0059706 	287800 
1030.2 	0.0059706 	288470 
1030.7 	0.0059706 	288970 
1031.2 	0.0059706 	289300 
1031.7 	0.0059706 	290130 
1032.2 	0.0059706 	290630 
1032.7 	0.0059706 	291130 
1033.2 	0.0059706 	291630 
1033.7 	0.0059706 	292130 
1034.2 	0.0059706 	292630 
1034.7 	0.0059706 	293130 
1035.2 	0.0059706 	293630 
1035.7 	0.0059706 	294130 
1036.2 	0.0059706 	294790 
1036.7 	0.0059706 	295290 
1037.2 	0.0059706 	295790 
1037.7 	0.0059706 	296290 
1038.2 	0.0059706 	296960 
1038.7 	0.0059706 	297460 
1039.2 	0.0059706 	297960 
1039.7 	0.0059706 	298460 
1040.2 	0.0059706 	298960 
1040.7 	0.0059706 	299620 
1041.2 	0.0059706 	300120 
1041.7 	0.0059706 	300620 
1042.2 	0.0059706 	301120 
1042.7 	0.0059706 	301620 
1043.2 	0.0059706 	302290 
1043.7 	0.0059706 	302780 
1044.2 	0.0059706 	303120 
1044.7 	0.0059706 	303780 
1045.2 	0.0059706 	304280 
1045.7 	0.0059706 	304950 
1046.2 	0.0059706 	305450 
1046.7 	0.0059706 	305950 
1047.2 	0.0059706 	306450 
1047.7 	0.0059706 	306950 
1048.2 	0.0059706 	307450 
1048.7 	0.0059706 	307950 
1049.2 	0.0059706 	308440 
1049.7 	0.0059706 	309110 
1050.2 	0.0059706 	309610 
1050.7 	0.0059706 	310110 
1051.2 	0.0059706 	310610 
1051.7 	0.0059706 	311270 
1052.2 	0.0059706 	311770 
1052.7 	0.0059706 	312270 
1053.2 	0.0059706 	312940 
1053.7 	0.0059706 	313270 
1054.2 	0.0059706 	313770 
1054.7 	0.0059706 	314440 
1055.2 	0.0059706 	314940 
1055.7 	0.0059706 	315440 
1056.2 	0.0059706 	316100 
1056.7 	0.0059706 	316430 
1057.2 	0.0059706 	317100 
1057.7 	0.0059706 	317600 
1058.2 	0.0059706 	318100 
1058.7 	0.0059706 	318600 
1059.2 	0.0059706 	319100 
1059.7 	0.0059706 	319760 
1060.2 	0.0059706 	320260 
1060.7 	0.0059706 	320760 
1061.2 	0.0059706 	321430 
1061.7 	0.0059706 	321760 
1062.2 	0.0059706 	322260 
1062.7 	0.0059706 	322930 
1063.2 	0.0059706 	323430 
1063.7 	0.0059706 	323920 
1064.2 	0.0059706 	324420 
1064.7 	0.0059706 	325090 
1065.2 	0.0059706 	325590 
1065.7 	0.0059706 	325920 
1066.2 	0.0059706 	326750 
1066.7 	0.0059706 	327090 
1067.2 	0.0059706 	327590 
1067.7 	0.0059706 	328250 
1068.2 	0.0059706 	328590 
1068.7 	0.0059706 	329250 
1069.2 	0.0059706 	329750 
1069.7 	0.0059706 	330250 
1070.2 	0.0059706 	330920 
1070.7 	0.0059706 	331250 
1071.2 	0.0059706 	331910 
1071.7 	0.0059706 	332410 
1072.2 	0.0059706 	333080 
1072.7 	0.0059706 	333410 
1073.2 	0.0059706 	333910 
1073.7 	0.0059706 	334580 
1074.2 	0.0059706 	335080 
1074.7 	0.0059706 	335580 
1075.2 	0.0059706 	336080 
1075.7 	0.0059706 	336740 
1076.2 	0.0059706 	337240 
1076.7 	0.0059706 	337740 
1077.2 	0.0059706 	338240 
1077.7 	0.0059706 	338740 
1078.2 	0.0059706 	339240 
1078.7 	0.0059706 	339900 
1079.2 	0.0059706 	340400 
1079.7 	0.0059706 	340900 
1080.2 	0.0059706 	341400 
1080.7 	0.0059706 	341900 
1081.2 	0.0059706 	342570 
1081.7 	0.0059706 	342900 
1082.2 	0.0059706 	343730 
1082.7 	0.0059706 	344070 
1083.2 	0.0059706 	344570 
1083.7 	0.0059706 	345230 
1084.2 	0.0059706 	345730 
1084.7 	0.0059706 	346230 
1085.2 	0.0059706 	346730 
1085.7 	0.0059706 	347230 
1086.2 	0.0059706 	347890 
1086.7 	0.0059706 	348390 
1087.2 	0.0059706 	348890 
1087.7 	0.0059706 	349390 
1088.2 	0.0059706 	349890 
1088.7 	0.0059706 	350560 
1089.2 	0.0059706 	351060 
1089.7 	0.0059706 	351560 
1090.2 	0.0059706 	352060 
1090.7 	0.0059706 	352720 
1091.2 	0.0059706 	353220 
1091.7 	0.0059706 	353720 
1092.2 	0.0059706 	354220 
1092.7 	0.0059706 	354720 
1093.2 	0.0059706 	355220 
1093.7 	0.0059706 	355880 
1094.2 	0.0059706 	356380 
1094.7 	0.0059706 	356720 
1095.2 	0.0059706 	357380 
1095.7 	0.0059706 	357880 
1096.2 	0.0059706 	358380 
1096.7 	0.0059706 	358880 
1097.2 	0.0059706 	359550 
1097.7 	0.0059706 	360050 
1098.2 	0.0059706 	360550 
1098.7 	0.0059706 	361210 
1099.2 	0.0059706 	361540 
1099.7 	0.0059706 	362210 
1100.2 	0.0059706 	362710 
1100.7 	0.0059706 	363210 
1101.2 	0.0059706 	363710 
1101.7 	0.0059706 	364370 
1102.2 	0.0059706 	364710 
1102.7 	0.0059706 	365370 
1103.2 	0.0059706 	365870 
1103.7 	0.0059706 	366370 
1104.2 	0.0059706 	366870 
1104.7 	0.0059706 	367370 
1105.2 	0.0059706 	367870 
1105.7 	0.0059706 	368540 
1106.2 	0.0059706 	369030 
1106.7 	0.0059706 	369530 
1107.2 	0.0059706 	370200 
1107.7 	0.0059706 	370530 
1108.2 	0.0059706 	371200 
1108.7 	0.0059706 	371700 
1109.2 	0.0059706 	372200 
1109.7 	0.0059706 	372700 
1110.2 	0.0059706 	373360 
1110.7 	0.0059706 	373860 
1111.2 	0.0059706 	374360 
1111.7 	0.0059706 	374860 
1112.2 	0.0059706 	375360 
1112.7 	0.0059706 	376030 
1113.2 	0.0059706 	376530 
1113.7 	0.0059706 	377020 
1114.2 	0.0059706 	377520 
1114.7 	0.0059706 	378020 
1115.2 	0.0059706 	378690 
1115.7 	0.0059706 	379190 
1116.2 	0.0059706 	379690 
1116.7 	0.0059706 	380190 
1117.2 	0.0059706 	380690 
1117.7 	0.0059706 	381350 
1118.2 	0.0059706 	381850 
1118.7 	0.0059706 	382180 
1119.2 	0.0059706 	382850 
1119.7 	0.0059706 	383350 
1120.2 	0.0059706 	383850 
1120.7 	0.0059706 	384520 
1121.2 	0.0059706 	385010 
1121.7 	0.0059706 	385510 
1122.2 	0.0059706 	386010 
1122.7 	0.0059706 	386510 
1123.2 	0.0059706 	387180 
1123.7 	0.0059706 	387680 
1124.2 	0.0059706 	388180 
1124.7 	0.0059706 	388680 
1125.2 	0.0059706 	389180 
1125.7 	0.0059706 	389840 
1126.2 	0.0059706 	390340 
1126.7 	0.0059706 	390670 
1127.2 	0.0059706 	391170 
1127.7 	0.0059706 	392010 
1128.2 	0.0059706 	392510 
1128.7 	0.0059706 	393000 
1129.2 	0.0059706 	393500 
1129.7 	0.0059706 	394000 
1130.2 	0.0059706 	394500 
1130.7 	0.0059706 	395170 
1131.2 	0.0059706 	395670 
1131.7 	0.0059706 	394000 
1131.8 	0.0059706 	386510 
1131.8 	0.0059706 	381520 
1131.8 	0.0059706 	386850 
1132.0 	0.0059706 	390010 
1132.1 	0.0059706 	393000 
1132.3 	0.0059706 	396000 
1132.8 	0.0059706 	397170 
1133.3 	0.0059706 	397670 
1133.8 	0.0059706 	398330 
1134.3 	0.0059706 	397330 
1134.8 	0.0059706 	399330 
1135.3 	0.0059706 	399830 
1135.8 	0.0059706 	400330 
1136.3 	0.0059706 	400830 
1136.8 	0.0059706 	401490 
1137.3 	0.0059706 	401990 
1137.8 	0.0059706 	402490 
1138.3 	0.0059706 	402830 
1138.8 	0.0059706 	403490 
1139.3 	0.0059706 	404160 
1139.8 	0.0059706 	404660 
1140.3 	0.0059706 	405160 
1140.8 	0.0059706 	405660 
1141.3 	0.0059706 	406320 
1141.8 	0.0059706 	406820 
1142.3 	0.0059706 	407320 
1142.8 	0.0059706 	407820 
1143.3 	0.0059706 	408320 
1143.8 	0.0059706 	408980 
1144.3 	0.0059706 	409480 
1144.8 	0.0059706 	409980 
1145.3 	0.0059706 	410480 
1145.8 	0.0059706 	411150 
1146.3 	0.0059706 	411650 
1146.8 	0.0059706 	411980 
1147.3 	0.0059706 	412650 
1147.8 	0.0059706 	413150 
1148.3 	0.0059706 	413650 
1148.8 	0.0059706 	414310 
1149.3 	0.0059706 	414810 
1149.8 	0.0059706 	415310 
1150.3 	0.0059706 	415810 
1150.8 	0.0059706 	416310 
1151.3 	0.0059706 	416810 
1151.8 	0.0059706 	417470 
1152.3 	0.0059706 	417810 
1152.8 	0.0059706 	418470 
1153.3 	0.0059706 	419140 
1153.8 	0.0059706 	419470 
1154.3 	0.0059706 	419970 
1154.8 	0.0059706 	420640 
1155.3 	0.0059706 	421140 
1155.8 	0.0059706 	421640 
1156.3 	0.0059706 	422130 
1156.8 	0.0059706 	422800 
1157.3 	0.0059706 	423300 
1157.8 	0.0059706 	423800 
1158.3 	0.0059706 	424300 
1158.8 	0.0059706 	424300 
1159.3 	0.0059706 	425300 
1159.8 	0.0059706 	425960 
1160.3 	0.0059706 	426460 
1160.8 	0.0059706 	426960 
1161.3 	0.0059706 	427460 
1161.8 	0.0059706 	428130 
1162.3 	0.0059706 	428460 
1162.8 	0.0059706 	429130 
1163.3 	0.0059706 	429620 
1163.8 	0.0059706 	430290 
1164.3 	0.0059706 	430620 
1164.8 	0.0059706 	431120 
1165.3 	0.0059706 	431790 
1165.8 	0.0059706 	432290 
1166.3 	0.0059706 	432790 
1166.8 	0.0059706 	433450 
1167.3 	0.0059706 	433790 
1167.8 	0.0059706 	434290 
1168.3 	0.0059706 	434950 
1168.8 	0.0059706 	435450 
1169.3 	0.0059706 	435950 
1169.8 	0.0059706 	436620 
1170.3 	0.0059706 	436950 
1170.8 	0.0059706 	437610 
1171.3 	0.0059706 	438110 
1171.8 	0.0059706 	438610 
1172.3 	0.0059706 	439110 
1172.8 	0.0059706 	439780 
1173.3 	0.0059706 	440110 
1173.8 	0.0059706 	440780 
1174.3 	0.0059706 	441280 
1174.8 	0.0059706 	441780 
1175.3 	0.0059706 	442440 
1175.8 	0.0059706 	442780 
1176.3 	0.0059706 	443440 
1176.8 	0.0059706 	443940 
1177.3 	0.0059706 	444440 
1177.8 	0.0059706 	444940 
1178.3 	0.0059706 	445600 
1178.8 	0.0059706 	445940 
1179.3 	0.0059706 	446600 
1179.6 	0.0059706 	441940 
1179.6 	0.0059706 	436450 
1179.7 	0.0059706 	440280 
1179.9 	0.0059706 	443610 
1180.1 	0.0059706 	446940 
1180.6 	0.0059706 	447770 
1181.1 	0.0059706 	446600 
1181.6 	0.0059706 	448770 
1181.9 	0.0059706 	445270 
1182.3 	0.0059706 	448600 
1182.8 	0.0059706 	449100 
1183.3 	0.0059706 	450430 
1183.8 	0.0059706 	449270 
1184.3 	0.0059706 	451430 
1184.8 	0.0059706 	452260 
1185.3 	0.0059706 	452600 
1185.8 	0.0059706 	453260 
1186.3 	0.0059706 	453930 
1186.8 	0.0059706 	454260 
1187.3 	0.0059706 	454760 
1187.8 	0.0059706 	455090 
1188.2 	0.0059706 	444610 
1188.3 	0.0059706 	417310 
1188.3 	0.0059706 	401490 
1188.3 	0.0059706 	405160 
1188.3 	0.0059706 	408480 
1188.4 	0.0059706 	412480 
1188.5 	0.0059706 	417140 
1188.5 	0.0059706 	421800 
1188.6 	0.0059706 	418470 
1188.6 	0.0059706 	414310 
1188.6 	0.0059706 	419970 
1188.7 	0.0059706 	423300 
1188.8 	0.0059706 	426800 
1188.8 	0.0059706 	430620 
1188.9 	0.0059706 	434450 
1188.9 	0.0059706 	403990 
1188.9 	0.0059706 	221890 
