Tempo(s)	Deformação(mm)	Força(N)
0.016667 	0.00000 	499.37 
0.51667 	0.00000 	499.37 
1.0167 	0.00010662 	665.83 
1.5167 	0.00021324 	832.28 
2.0167 	0.00031985 	1165.2 
2.5167 	0.00042647 	1831.0 
3.0167 	0.00063971 	2330.4 
3.5167 	0.00085294 	2829.8 
4.0167 	0.0010662 	3329.1 
4.4167 	0.0011728 	3995.0 
4.9167 	0.0013860 	4327.9 
5.3000 	0.0015993 	4993.7 
5.8000 	0.0018125 	5326.6 
6.1833 	0.0020257 	5992.4 
6.6833 	0.0022390 	6325.4 
7.0667 	0.0023456 	6991.2 
7.5667 	0.0026655 	7490.6 
8.0667 	0.0028787 	7989.9 
8.5667 	0.0030919 	8489.3 
9.0667 	0.0031985 	9155.1 
9.5667 	0.0034118 	9654.5 
10.067 	0.0037316 	9987.4 
10.483 	0.0038383 	10653 
10.983 	0.0040515 	11153 
11.483 	0.0041581 	11652 
11.983 	0.0043713 	11985 
12.483 	0.0044780 	12318 
12.983 	0.0045846 	12651 
13.417 	0.0047978 	13317 
13.800 	0.0051177 	13982 
14.267 	0.0053309 	14648 
14.767 	0.0056508 	15148 
15.233 	0.0058640 	15813 
15.733 	0.0060772 	16146 
16.133 	0.0061839 	16812 
16.633 	0.0063971 	17145 
17.117 	0.0066103 	17811 
17.617 	0.0068236 	18144 
18.117 	0.0069302 	18643 
18.617 	0.0071434 	19143 
19.117 	0.0073566 	19642 
19.567 	0.0075699 	20308 
20.067 	0.0077831 	20807 
20.483 	0.0079964 	21473 
20.983 	0.0082096 	21806 
21.483 	0.0084228 	22472 
21.983 	0.0086361 	22805 
22.483 	0.0087427 	23137 
22.983 	0.0087427 	23137 
23.483 	0.0088493 	23304 
23.983 	0.0087427 	23304 
24.483 	0.0088493 	23137 
24.983 	0.0088493 	23304 
25.483 	0.0089559 	23304 
25.983 	0.0088493 	23304 
26.483 	0.0088493 	23137 
26.983 	0.0088493 	23304 
27.483 	0.0088493 	23304 
27.983 	0.0088493 	23304 
28.483 	0.0088493 	23304 
28.983 	0.0088493 	23304 
29.483 	0.0088493 	23304 
29.983 	0.0088493 	23304 
30.483 	0.0088493 	23304 
30.983 	0.0088493 	23304 
31.483 	0.0088493 	23304 
31.983 	0.0088493 	23304 
32.483 	0.0088493 	23470 
32.983 	0.0088493 	23304 
33.483 	0.0088493 	23304 
33.983 	0.0088493 	23137 
34.483 	0.0088493 	23304 
34.983 	0.0088493 	23304 
35.483 	0.0088493 	23304 
35.983 	0.0088493 	23137 
36.483 	0.0088493 	23304 
36.983 	0.0088493 	23470 
37.483 	0.0088493 	23304 
37.983 	0.0088493 	23304 
38.483 	0.0088493 	23304 
38.983 	0.0088493 	23304 
39.483 	0.0088493 	23304 
39.983 	0.0088493 	23304 
40.483 	0.0088493 	23304 
40.983 	0.0088493 	23304 
41.483 	0.0088493 	23304 
41.983 	0.0089559 	23304 
42.483 	0.0088493 	23304 
42.983 	0.0088493 	23304 
43.483 	0.0088493 	23304 
43.983 	0.0088493 	23304 
44.483 	0.0088493 	23304 
44.983 	0.0088493 	23304 
45.483 	0.0089559 	23304 
45.983 	0.0088493 	23304 
46.483 	0.0088493 	23304 
46.983 	0.0088493 	23137 
47.483 	0.0088493 	23304 
47.983 	0.0088493 	23470 
48.483 	0.0088493 	23304 
48.983 	0.0088493 	23304 
49.483 	0.0088493 	23304 
49.983 	0.0088493 	23304 
50.483 	0.0088493 	23304 
50.983 	0.0088493 	23304 
51.483 	0.0088493 	23304 
51.983 	0.0088493 	23304 
52.483 	0.0088493 	23470 
52.983 	0.0088493 	23304 
53.483 	0.0088493 	23304 
53.983 	0.0088493 	23304 
54.483 	0.0088493 	23304 
54.983 	0.0088493 	23304 
55.483 	0.0088493 	23304 
55.983 	0.0087427 	23304 
56.483 	0.0088493 	23304 
56.983 	0.0088493 	23304 
57.483 	0.0088493 	23304 
57.983 	0.0087427 	23304 
58.483 	0.0088493 	23304 
58.983 	0.0088493 	23304 
59.483 	0.0088493 	23304 
59.983 	0.0088493 	23304 
60.483 	0.0088493 	23304 
60.983 	0.0088493 	23304 
61.483 	0.0088493 	23304 
61.983 	0.0088493 	23304 
62.483 	0.0088493 	23137 
62.983 	0.0087427 	23304 
63.483 	0.0088493 	23304 
63.983 	0.0088493 	23304 
64.483 	0.0088493 	23304 
64.983 	0.0088493 	23304 
65.483 	0.0088493 	23304 
65.983 	0.0088493 	23304 
66.483 	0.0087427 	23304 
66.983 	0.0088493 	23304 
67.483 	0.0088493 	23137 
67.983 	0.0088493 	23304 
68.483 	0.0088493 	23304 
68.983 	0.0087427 	23304 
69.483 	0.0088493 	23470 
69.983 	0.0088493 	23304 
70.483 	0.0087427 	23304 
70.983 	0.0088493 	23304 
71.483 	0.0088493 	23304 
71.983 	0.0088493 	23137 
72.483 	0.0087427 	23304 
72.983 	0.0088493 	23304 
73.483 	0.0088493 	23304 
73.983 	0.0088493 	23304 
74.483 	0.0088493 	23137 
74.983 	0.0088493 	23304 
75.483 	0.0088493 	23304 
75.983 	0.0088493 	23304 
76.483 	0.0088493 	23304 
76.983 	0.0087427 	23137 
77.483 	0.0088493 	23304 
77.983 	0.0088493 	23470 
78.483 	0.0088493 	23304 
78.983 	0.0088493 	23304 
79.483 	0.0088493 	23304 
79.983 	0.0087427 	23137 
80.483 	0.0088493 	23304 
80.983 	0.0088493 	23304 
81.483 	0.0088493 	23304 
81.983 	0.0087427 	23304 
82.483 	0.0087427 	23304 
82.983 	0.0087427 	22638 
83.483 	0.0085294 	22305 
83.983 	0.0084228 	21972 
84.483 	0.0083162 	21473 
84.983 	0.0081030 	20974 
85.417 	0.0078897 	20308 
85.917 	0.0076765 	19808 
86.350 	0.0074633 	19143 
86.850 	0.0072500 	18810 
87.350 	0.0071434 	18310 
87.850 	0.0069302 	17811 
88.350 	0.0067169 	17312 
88.850 	0.0063971 	16812 
89.317 	0.0062905 	16146 
89.817 	0.0060772 	15813 
90.267 	0.0058640 	15148 
90.767 	0.0056508 	14981 
91.267 	0.0055441 	14482 
91.767 	0.0054375 	14149 
92.267 	0.0053309 	13982 
92.567 	0.0051177 	13317 
92.933 	0.0049044 	12651 
93.417 	0.0044780 	11985 
93.900 	0.0042647 	11319 
94.400 	0.0040515 	10986 
94.850 	0.0038383 	10320 
95.350 	0.0037316 	9820.9 
95.850 	0.0035184 	9321.6 
96.350 	0.0033052 	8822.2 
96.850 	0.0030919 	8322.8 
97.350 	0.0028787 	7823.5 
97.833 	0.0026655 	7157.6 
98.333 	0.0024522 	6824.7 
98.767 	0.0023456 	6158.9 
99.267 	0.0020257 	5992.4 
99.667 	0.0019191 	5326.6 
100.17 	0.0017059 	4993.7 
100.65 	0.0014927 	4327.9 
101.15 	0.0012794 	3828.5 
101.65 	0.0010662 	3329.1 
102.15 	0.00095956 	2829.8 
102.65 	0.00074633 	2496.9 
103.15 	0.00053309 	1997.5 
103.65 	0.00042647 	1664.6 
104.15 	0.00042647 	1664.6 
104.65 	0.00031985 	1498.1 
105.15 	0.00021324 	1331.7 
105.65 	0.00031985 	1498.1 
106.15 	0.00021324 	1498.1 
106.65 	0.00021324 	1331.7 
107.15 	0.00021324 	1331.7 
107.65 	0.00021324 	1331.7 
108.15 	0.00021324 	1331.7 
108.65 	0.00010662 	998.74 
109.15 	0.00021324 	1331.7 
109.65 	0.00010662 	1331.7 
110.15 	0.00021324 	1165.2 
110.65 	0.00021324 	998.74 
111.15 	0.00010662 	1331.7 
111.65 	0.00010662 	1331.7 
112.15 	0.00021324 	1165.2 
112.65 	0.00010662 	1165.2 
113.15 	0.00010662 	1331.7 
113.65 	0.00010662 	1165.2 
114.15 	0.00010662 	1165.2 
114.65 	0.00021324 	1165.2 
115.15 	0.00010662 	1165.2 
115.65 	0.00010662 	1165.2 
116.15 	0.00021324 	1165.2 
116.65 	0.00010662 	1165.2 
117.15 	0.00010662 	1331.7 
117.65 	0.00010662 	1165.2 
118.15 	0.00010662 	998.74 
118.65 	0.00010662 	998.74 
119.15 	0.00010662 	1165.2 
119.65 	0.00000 	1331.7 
120.15 	0.00010662 	1331.7 
120.65 	0.00010662 	1165.2 
121.15 	0.00010662 	1165.2 
121.65 	0.00010662 	1165.2 
122.15 	0.00010662 	1331.7 
122.65 	0.00010662 	1165.2 
123.15 	0.00010662 	1165.2 
123.65 	0.00000 	1165.2 
124.15 	0.00010662 	1165.2 
124.65 	0.00000 	1165.2 
125.15 	0.00010662 	1165.2 
125.65 	0.00010662 	1165.2 
126.15 	0.00010662 	1165.2 
126.65 	0.00010662 	1165.2 
127.15 	0.00010662 	1165.2 
127.65 	0.00010662 	998.74 
128.15 	0.00010662 	1165.2 
128.65 	0.00010662 	1165.2 
129.15 	0.00010662 	1165.2 
129.65 	0.00010662 	1165.2 
130.15 	0.00010662 	1331.7 
130.65 	0.00010662 	1165.2 
131.15 	0.00000 	1165.2 
131.65 	0.00010662 	1331.7 
132.15 	0.00010662 	998.74 
132.65 	0.00000 	1165.2 
133.15 	0.00000 	1165.2 
133.65 	0.00000 	1331.7 
134.15 	0.00000 	1165.2 
134.65 	0.00000 	1165.2 
135.15 	0.00000 	1331.7 
135.65 	0.00000 	1165.2 
136.15 	0.00000 	1165.2 
136.65 	0.00000 	1165.2 
137.15 	0.00000 	1165.2 
137.65 	0.00000 	1165.2 
138.15 	0.00000 	1165.2 
138.65 	0.00000 	1165.2 
139.15 	0.00000 	1165.2 
139.65 	0.00000 	1331.7 
140.15 	0.00000 	1165.2 
140.65 	0.00000 	998.74 
141.15 	0.00000 	1165.2 
141.65 	0.00000 	1331.7 
142.15 	0.00000 	1165.2 
142.65 	0.00000 	998.74 
143.15 	0.00000 	1165.2 
143.65 	0.00000 	1165.2 
144.15 	0.00000 	1165.2 
144.65 	0.00000 	1165.2 
145.15 	-0.0001068 	1331.7 
145.65 	-0.0001068 	1165.2 
146.15 	0.00000 	1165.2 
146.65 	0.00000 	1165.2 
147.15 	0.00000 	1331.7 
147.65 	-0.0001068 	1331.7 
148.15 	-0.0001068 	1165.2 
148.65 	-0.0001068 	998.74 
149.15 	-0.0001068 	1165.2 
149.65 	-0.0001068 	1331.7 
150.15 	-0.0001068 	1165.2 
150.65 	0.00000 	1165.2 
151.15 	-0.0001068 	998.74 
151.65 	-0.0001068 	1165.2 
152.15 	-0.0001068 	1165.2 
152.65 	-0.0001068 	1331.7 
153.15 	-0.0001068 	1165.2 
153.65 	-0.0001068 	998.74 
154.15 	-0.0001068 	1165.2 
154.65 	-0.0001068 	1331.7 
155.15 	-0.0001068 	1165.2 
155.65 	-0.0001068 	1165.2 
156.15 	-0.0001068 	1165.2 
156.65 	-0.0001068 	1165.2 
157.15 	-0.0001068 	1165.2 
157.65 	-0.0001068 	1165.2 
158.15 	-0.0001068 	1331.7 
158.65 	-0.0001068 	1165.2 
159.15 	-0.0001068 	998.74 
159.65 	-0.0001068 	1165.2 
160.15 	-0.0001068 	1165.2 
160.65 	-0.0001068 	1165.2 
161.15 	-0.0001068 	1165.2 
161.65 	-0.0001068 	998.74 
162.15 	-0.0001068 	1165.2 
162.65 	-0.0001068 	1331.7 
163.15 	-0.0001068 	1165.2 
163.65 	-0.0001068 	1331.7 
164.15 	-0.0001068 	1165.2 
164.65 	-0.0001068 	998.74 
165.15 	-0.0002136 	1165.2 
165.65 	-0.0002136 	1331.7 
166.15 	0.00000 	1664.6 
166.65 	0.00010662 	1997.5 
167.15 	0.00021324 	2330.4 
167.65 	0.00042647 	2996.2 
168.15 	0.00053309 	3495.6 
168.65 	0.00085294 	3995.0 
169.15 	0.0010662 	4327.9 
169.48 	0.0011728 	4993.7 
169.98 	0.0014927 	5493.1 
170.48 	0.0015993 	6325.4 
170.98 	0.0018125 	6658.3 
171.45 	0.0020257 	7324.1 
171.95 	0.0023456 	7657.0 
172.45 	0.0025588 	8322.8 
172.95 	0.0026655 	8822.2 
173.45 	0.0028787 	9321.6 
173.95 	0.0030919 	9820.9 
174.42 	0.0033052 	10487 
174.92 	0.0035184 	10820 
175.42 	0.0037316 	11319 
175.92 	0.0038383 	11652 
176.40 	0.0040515 	12318 
176.90 	0.0041581 	12651 
177.40 	0.0042647 	12817 
177.68 	0.0044780 	13483 
178.03 	0.0046912 	14149 
178.53 	0.0050111 	14648 
179.00 	0.0052243 	15314 
179.50 	0.0054375 	15980 
180.00 	0.0056508 	16479 
180.50 	0.0058640 	16979 
181.00 	0.0060772 	17478 
181.50 	0.0062905 	17977 
182.00 	0.0065037 	18477 
182.50 	0.0067169 	18810 
183.00 	0.0068236 	19309 
183.43 	0.0070368 	19975 
183.93 	0.0073566 	20474 
184.43 	0.0075699 	20974 
184.90 	0.0077831 	21639 
185.40 	0.0078897 	22139 
185.90 	0.0081030 	22638 
186.40 	0.0082096 	22971 
186.90 	0.0084228 	23137 
187.40 	0.0084228 	23304 
187.90 	0.0084228 	23304 
188.40 	0.0084228 	23304 
188.90 	0.0084228 	23137 
189.40 	0.0084228 	23304 
189.90 	0.0084228 	23304 
190.40 	0.0084228 	23137 
190.90 	0.0084228 	23304 
191.40 	0.0085294 	23304 
191.90 	0.0085294 	23304 
192.40 	0.0084228 	23304 
192.90 	0.0085294 	23304 
193.40 	0.0084228 	23304 
193.90 	0.0084228 	23304 
194.40 	0.0085294 	23304 
194.90 	0.0085294 	23304 
195.40 	0.0085294 	23304 
195.90 	0.0084228 	23304 
196.40 	0.0085294 	23304 
196.90 	0.0085294 	23304 
197.40 	0.0085294 	23470 
197.90 	0.0085294 	23304 
198.40 	0.0085294 	23304 
198.90 	0.0084228 	23137 
199.40 	0.0085294 	23304 
199.90 	0.0084228 	23304 
200.40 	0.0085294 	23470 
200.90 	0.0084228 	23304 
201.40 	0.0084228 	23304 
201.90 	0.0085294 	23304 
202.40 	0.0084228 	23470 
202.90 	0.0085294 	23304 
203.40 	0.0085294 	23137 
203.90 	0.0085294 	23137 
204.40 	0.0084228 	23304 
204.90 	0.0085294 	23470 
205.40 	0.0084228 	23304 
205.90 	0.0085294 	23304 
206.40 	0.0085294 	23304 
206.90 	0.0084228 	23304 
207.40 	0.0084228 	23304 
207.90 	0.0084228 	23304 
208.40 	0.0084228 	23304 
208.90 	0.0084228 	23470 
209.40 	0.0084228 	23304 
209.90 	0.0084228 	23304 
210.40 	0.0084228 	23304 
210.90 	0.0084228 	23304 
211.40 	0.0084228 	23304 
211.90 	0.0084228 	23304 
212.40 	0.0084228 	23470 
212.90 	0.0084228 	23304 
213.40 	0.0085294 	23137 
213.90 	0.0085294 	23304 
214.40 	0.0085294 	23304 
214.90 	0.0084228 	23304 
215.40 	0.0084228 	23304 
215.90 	0.0084228 	23304 
216.40 	0.0085294 	23304 
216.90 	0.0085294 	23470 
217.40 	0.0084228 	23304 
217.90 	0.0084228 	23304 
218.40 	0.0084228 	23304 
218.90 	0.0084228 	23304 
219.40 	0.0084228 	23304 
219.90 	0.0084228 	23137 
220.40 	0.0084228 	23304 
220.90 	0.0084228 	23470 
221.40 	0.0084228 	23304 
221.90 	0.0084228 	23304 
222.40 	0.0084228 	23304 
222.90 	0.0084228 	23304 
223.40 	0.0084228 	23304 
223.90 	0.0084228 	23470 
224.40 	0.0084228 	23304 
224.90 	0.0084228 	23304 
225.40 	0.0084228 	23470 
225.90 	0.0085294 	23304 
226.40 	0.0084228 	23304 
226.90 	0.0084228 	23137 
227.40 	0.0084228 	23304 
227.90 	0.0085294 	23304 
228.40 	0.0084228 	23304 
228.90 	0.0084228 	23304 
229.40 	0.0084228 	23304 
229.90 	0.0084228 	23304 
230.40 	0.0084228 	23304 
230.90 	0.0084228 	23304 
231.40 	0.0084228 	23304 
231.90 	0.0084228 	23137 
232.40 	0.0084228 	23304 
232.90 	0.0084228 	23304 
233.40 	0.0084228 	23304 
233.90 	0.0084228 	23304 
234.40 	0.0084228 	23137 
234.90 	0.0084228 	23304 
235.40 	0.0084228 	23304 
235.90 	0.0084228 	23304 
236.40 	0.0084228 	23304 
236.90 	0.0084228 	23304 
237.40 	0.0084228 	23137 
237.90 	0.0084228 	23304 
238.40 	0.0084228 	23470 
238.90 	0.0084228 	23304 
239.40 	0.0084228 	23137 
239.90 	0.0084228 	23304 
240.40 	0.0084228 	23304 
240.90 	0.0084228 	23304 
241.40 	0.0084228 	23304 
241.90 	0.0084228 	23304 
242.40 	0.0084228 	23470 
242.90 	0.0084228 	23470 
243.40 	0.0084228 	23304 
243.90 	0.0084228 	23304 
244.40 	0.0084228 	23304 
244.90 	0.0084228 	23304 
245.40 	0.0084228 	23137 
245.90 	0.0084228 	23304 
246.40 	0.0084228 	23304 
246.90 	0.0084228 	23304 
247.20 	0.0084228 	22638 
247.70 	0.0082096 	22305 
248.20 	0.0079964 	21806 
248.70 	0.0078897 	21473 
249.20 	0.0076765 	20807 
249.70 	0.0074633 	20308 
250.17 	0.0072500 	19642 
250.67 	0.0070368 	19143 
251.17 	0.0068236 	18643 
251.67 	0.0066103 	18144 
252.17 	0.0063971 	17644 
252.67 	0.0061839 	16979 
253.17 	0.0059706 	16646 
253.67 	0.0057574 	15980 
254.17 	0.0055441 	15480 
254.67 	0.0054375 	15148 
255.17 	0.0052243 	14648 
255.67 	0.0051177 	14482 
256.17 	0.0050111 	14149 
256.65 	0.0047978 	13483 
256.98 	0.0044780 	12817 
257.43 	0.0042647 	12151 
257.93 	0.0040515 	11652 
258.43 	0.0038383 	11153 
258.92 	0.0036250 	10487 
259.42 	0.0034118 	9987.4 
259.92 	0.0030919 	9488.0 
260.42 	0.0029853 	8988.7 
260.90 	0.0027721 	8322.8 
261.40 	0.0024522 	7989.9 
261.90 	0.0023456 	7324.1 
262.40 	0.0021324 	6824.7 
262.90 	0.0019191 	6325.4 
263.40 	0.0017059 	5826.0 
263.90 	0.0014927 	5493.1 
264.22 	0.0013860 	4827.2 
264.72 	0.0011728 	4327.9 
265.22 	0.00095956 	3995.0 
265.72 	0.00074633 	3662.0 
266.03 	0.00063971 	2996.2 
266.53 	0.00042647 	2663.3 
267.03 	0.00031985 	2163.9 
267.53 	0.00010662 	1831.0 
268.03 	0.00000 	1664.6 
268.53 	-0.0001068 	1498.1 
269.03 	-0.0001068 	1498.1 
269.53 	-0.0002136 	1331.7 
270.03 	-0.0001068 	1498.1 
270.53 	-0.0001068 	1498.1 
271.03 	-0.0001068 	1331.7 
271.53 	-0.0002136 	1165.2 
272.03 	-0.0002136 	1165.2 
272.53 	-0.0002136 	998.74 
273.03 	-0.0002136 	1165.2 
273.53 	-0.0002136 	1331.7 
274.03 	-0.0003204 	998.74 
274.53 	-0.0003204 	1165.2 
275.03 	-0.0003204 	1165.2 
275.53 	-0.0003204 	1165.2 
276.03 	-0.0003204 	1165.2 
276.53 	-0.0002136 	1165.2 
277.03 	-0.0003204 	1331.7 
277.53 	-0.0002136 	1165.2 
278.03 	-0.0002136 	998.74 
278.53 	-0.0002136 	1165.2 
279.03 	-0.0002136 	1331.7 
279.53 	-0.0003204 	998.74 
280.03 	-0.0002136 	1165.2 
280.53 	-0.0003204 	1331.7 
281.03 	-0.0003204 	1331.7 
281.53 	-0.0003204 	998.74 
282.03 	-0.0003204 	1165.2 
282.53 	-0.0003204 	1165.2 
283.03 	-0.0002136 	1331.7 
283.53 	-0.0003204 	998.74 
284.03 	-0.0002136 	1165.2 
284.53 	-0.0003204 	1165.2 
285.03 	-0.0003204 	1165.2 
285.53 	-0.0003204 	1165.2 
286.03 	-0.0003204 	1165.2 
286.53 	-0.0003204 	998.74 
287.03 	-0.0003204 	998.74 
287.53 	-0.0003204 	1165.2 
288.03 	-0.0003204 	1331.7 
288.53 	-0.0003204 	1165.2 
289.03 	-0.0003204 	998.74 
289.53 	-0.0003204 	1165.2 
290.03 	-0.0003204 	1331.7 
290.53 	-0.0003204 	1165.2 
291.03 	-0.0003204 	998.74 
291.53 	-0.0003204 	1165.2 
292.03 	-0.0003204 	1331.7 
292.53 	-0.0003204 	1165.2 
293.03 	-0.0003204 	1331.7 
293.53 	-0.0003204 	1331.7 
294.03 	-0.0003204 	1165.2 
294.53 	-0.0003204 	998.74 
295.03 	-0.0003204 	998.74 
295.53 	-0.0003204 	1165.2 
296.03 	-0.0003204 	1331.7 
296.53 	-0.0003204 	1165.2 
297.03 	-0.0003204 	1165.2 
297.53 	-0.0003204 	998.74 
298.03 	-0.0003204 	1165.2 
298.53 	-0.0003204 	1331.7 
299.03 	-0.0003204 	998.74 
299.53 	-0.0003204 	1165.2 
300.03 	-0.0003204 	1331.7 
300.53 	-0.0003204 	1165.2 
301.03 	-0.0003204 	998.74 
301.53 	-0.0003204 	1165.2 
302.03 	-0.0003204 	1331.7 
302.53 	-0.0003204 	1165.2 
303.03 	-0.0003204 	1165.2 
303.53 	-0.0003204 	998.74 
304.03 	-0.0003204 	1165.2 
304.53 	-0.0003204 	1331.7 
305.03 	-0.0003204 	1165.2 
305.53 	-0.0003204 	1165.2 
306.03 	-0.0003204 	1331.7 
306.53 	-0.0003204 	1165.2 
307.03 	-0.0003204 	1165.2 
307.53 	-0.0003204 	1165.2 
308.03 	-0.0003204 	1165.2 
308.53 	-0.0003204 	998.74 
309.03 	-0.0003204 	998.74 
309.53 	-0.0003204 	998.74 
310.03 	-0.0003204 	1165.2 
310.53 	-0.0003204 	1165.2 
311.03 	-0.0003204 	1165.2 
311.53 	-0.0003204 	1165.2 
312.03 	-0.0003204 	1165.2 
312.53 	-0.0003204 	1165.2 
313.03 	-0.0003204 	1331.7 
313.53 	-0.0004273 	1331.7 
314.03 	-0.0003204 	1165.2 
314.53 	-0.0004273 	998.74 
315.03 	-0.0003204 	1165.2 
315.53 	-0.0004273 	1331.7 
316.03 	-0.0003204 	1165.2 
316.53 	-0.0003204 	1165.2 
317.03 	-0.0003204 	1165.2 
317.53 	-0.0003204 	1331.7 
318.03 	-0.0003204 	1165.2 
318.53 	-0.0004273 	998.74 
319.03 	-0.0004273 	1165.2 
319.53 	-0.0004273 	1331.7 
320.03 	-0.0004273 	1165.2 
320.53 	-0.0003204 	998.74 
321.03 	-0.0003204 	998.74 
321.53 	-0.0003204 	1165.2 
322.03 	-0.0003204 	1331.7 
322.53 	-0.0003204 	1165.2 
323.03 	-0.0004273 	998.74 
323.53 	-0.0003204 	1165.2 
324.03 	-0.0004273 	1165.2 
324.53 	-0.0003204 	1165.2 
325.03 	-0.0003204 	998.74 
325.53 	-0.0003204 	1165.2 
326.03 	-0.0003204 	1331.7 
326.53 	-0.0004273 	1165.2 
327.03 	-0.0003204 	1165.2 
327.53 	-0.0004273 	1165.2 
328.03 	-0.0003204 	1165.2 
328.53 	-0.0003204 	1331.7 
329.03 	-0.0004273 	1165.2 
329.53 	-0.0003204 	1165.2 
330.03 	-0.0003204 	1331.7 
330.53 	-0.0002136 	1664.6 
331.03 	-0.0001068 	1997.5 
331.53 	0.00000 	2663.3 
332.03 	0.00021324 	3162.7 
332.53 	0.00042647 	3495.6 
333.03 	0.00063971 	3995.0 
333.45 	0.00085294 	4660.8 
333.95 	0.0010662 	5326.6 
334.45 	0.0012794 	5659.5 
334.92 	0.0014927 	6325.4 
335.42 	0.0017059 	6824.7 
335.92 	0.0019191 	7324.1 
336.38 	0.0021324 	7989.9 
336.88 	0.0023456 	8322.8 
337.32 	0.0024522 	8988.7 
337.82 	0.0026655 	9321.6 
338.30 	0.0028787 	9987.4 
338.80 	0.0030919 	10320 
339.23 	0.0033052 	10986 
339.73 	0.0035184 	11319 
340.23 	0.0036250 	11818 
340.73 	0.0038383 	12151 
341.23 	0.0039449 	12651 
341.73 	0.0040515 	12817 
342.00 	0.0042647 	13483 
342.40 	0.0045846 	14149 
342.88 	0.0047978 	14815 
343.38 	0.0050111 	15314 
343.88 	0.0052243 	15980 
344.38 	0.0054375 	16479 
344.88 	0.0057574 	16979 
345.38 	0.0058640 	17478 
345.88 	0.0061839 	17977 
346.38 	0.0062905 	18477 
346.88 	0.0063971 	18810 
347.38 	0.0066103 	19309 
347.78 	0.0068236 	19975 
348.25 	0.0070368 	20641 
348.75 	0.0073566 	21140 
349.25 	0.0074633 	21639 
349.75 	0.0076765 	22139 
350.25 	0.0079964 	22638 
350.75 	0.0079964 	22971 
351.25 	0.0081030 	23137 
351.75 	0.0082096 	23304 
352.25 	0.0082096 	23304 
352.75 	0.0082096 	23304 
353.25 	0.0082096 	23304 
353.75 	0.0082096 	23470 
354.25 	0.0083162 	23304 
354.75 	0.0082096 	23137 
355.25 	0.0082096 	23304 
355.75 	0.0083162 	23304 
356.25 	0.0082096 	23304 
356.75 	0.0082096 	23304 
357.25 	0.0082096 	23304 
357.75 	0.0082096 	23304 
358.25 	0.0082096 	23304 
358.75 	0.0082096 	23137 
359.25 	0.0082096 	23304 
359.75 	0.0082096 	23304 
360.25 	0.0083162 	23304 
360.75 	0.0082096 	23304 
361.25 	0.0082096 	23137 
361.75 	0.0082096 	23304 
362.25 	0.0083162 	23304 
362.75 	0.0083162 	23304 
363.25 	0.0083162 	23304 
363.75 	0.0082096 	23304 
364.25 	0.0082096 	23304 
364.75 	0.0082096 	23304 
365.25 	0.0082096 	23304 
365.75 	0.0083162 	23137 
366.25 	0.0083162 	23304 
366.75 	0.0082096 	23470 
367.25 	0.0082096 	23470 
367.75 	0.0083162 	23304 
368.25 	0.0083162 	23304 
368.75 	0.0082096 	23137 
369.25 	0.0082096 	23304 
369.75 	0.0082096 	23304 
370.25 	0.0082096 	23304 
370.75 	0.0082096 	23304 
371.25 	0.0082096 	23304 
371.75 	0.0082096 	23470 
372.25 	0.0082096 	23304 
372.75 	0.0082096 	23137 
373.25 	0.0082096 	23304 
373.75 	0.0082096 	23470 
374.25 	0.0082096 	23304 
374.75 	0.0082096 	23304 
375.25 	0.0082096 	23304 
375.75 	0.0082096 	23304 
376.25 	0.0082096 	23304 
376.75 	0.0082096 	23304 
377.25 	0.0083162 	23304 
377.75 	0.0082096 	23304 
378.25 	0.0082096 	23304 
378.75 	0.0082096 	23304 
379.25 	0.0082096 	23304 
379.75 	0.0083162 	23304 
380.25 	0.0082096 	23304 
380.75 	0.0082096 	23304 
381.25 	0.0082096 	23470 
381.75 	0.0082096 	23304 
382.25 	0.0082096 	23304 
382.75 	0.0082096 	23304 
383.25 	0.0082096 	23137 
383.75 	0.0082096 	23304 
384.25 	0.0082096 	23304 
384.75 	0.0082096 	23304 
385.25 	0.0082096 	23304 
385.75 	0.0082096 	23137 
386.25 	0.0082096 	23304 
386.75 	0.0082096 	23470 
387.25 	0.0082096 	23304 
387.75 	0.0082096 	23304 
388.25 	0.0082096 	23304 
388.75 	0.0082096 	23304 
389.25 	0.0083162 	23304 
389.75 	0.0082096 	23304 
390.25 	0.0082096 	23304 
390.75 	0.0082096 	23137 
391.25 	0.0082096 	23304 
391.75 	0.0083162 	23470 
392.25 	0.0082096 	23470 
392.75 	0.0082096 	23304 
393.25 	0.0082096 	23304 
393.75 	0.0082096 	23137 
394.25 	0.0082096 	23304 
394.75 	0.0082096 	23304 
395.25 	0.0082096 	23304 
395.75 	0.0082096 	23304 
396.25 	0.0082096 	23304 
396.75 	0.0082096 	23304 
397.25 	0.0082096 	23304 
397.75 	0.0082096 	23137 
398.25 	0.0082096 	23304 
398.75 	0.0082096 	23304 
399.25 	0.0083162 	23304 
399.75 	0.0082096 	23137 
400.25 	0.0082096 	23304 
400.75 	0.0082096 	23304 
401.25 	0.0082096 	23137 
401.75 	0.0082096 	23137 
402.25 	0.0082096 	23304 
402.75 	0.0082096 	23304 
403.25 	0.0082096 	23304 
403.75 	0.0082096 	23304 
404.25 	0.0082096 	23304 
404.75 	0.0082096 	23304 
405.25 	0.0082096 	23304 
405.75 	0.0082096 	23304 
406.25 	0.0082096 	23304 
406.75 	0.0082096 	23304 
407.25 	0.0082096 	23304 
407.75 	0.0082096 	23304 
408.25 	0.0082096 	23137 
408.75 	0.0082096 	23304 
409.25 	0.0082096 	23304 
409.75 	0.0082096 	23304 
410.25 	0.0082096 	23137 
410.75 	0.0081030 	23304 
411.25 	0.0082096 	22971 
411.75 	0.0079964 	22472 
412.25 	0.0078897 	22139 
412.75 	0.0077831 	21639 
413.25 	0.0075699 	21140 
413.75 	0.0073566 	20641 
414.25 	0.0071434 	20141 
414.65 	0.0070368 	19475 
415.15 	0.0067169 	19143 
415.57 	0.0066103 	18477 
416.07 	0.0063971 	17977 
416.57 	0.0061839 	17478 
417.07 	0.0059706 	16979 
417.57 	0.0057574 	16646 
418.00 	0.0056508 	15980 
418.50 	0.0054375 	15647 
419.00 	0.0052243 	15148 
419.50 	0.0050111 	14648 
420.00 	0.0049044 	14315 
420.50 	0.0047978 	14149 
420.98 	0.0045846 	13483 
421.37 	0.0042647 	12817 
421.80 	0.0040515 	12151 
422.30 	0.0037316 	11652 
422.77 	0.0035184 	10986 
423.27 	0.0033052 	10487 
423.77 	0.0030919 	9987.4 
424.27 	0.0029853 	9488.0 
424.77 	0.0027721 	8988.7 
425.27 	0.0025588 	8322.8 
425.77 	0.0023456 	7989.9 
426.23 	0.0021324 	7324.1 
426.73 	0.0019191 	6991.2 
427.17 	0.0017059 	6325.4 
427.67 	0.0014927 	5826.0 
428.17 	0.0013860 	5659.5 
428.43 	0.0011728 	4993.7 
428.93 	0.00095956 	4660.8 
429.43 	0.00085294 	4161.4 
429.93 	0.00063971 	3828.5 
430.18 	0.00053309 	3162.7 
430.68 	0.00031985 	2996.2 
431.05 	0.00021324 	2330.4 
431.55 	0.00000 	1997.5 
432.05 	-0.0001068 	1831.0 
432.55 	-0.0002136 	1498.1 
433.05 	-0.0003204 	1498.1 
433.55 	-0.0003204 	1331.7 
434.05 	-0.0003204 	1498.1 
434.55 	-0.0003204 	1498.1 
435.05 	-0.0004273 	1331.7 
435.55 	-0.0004273 	1331.7 
436.05 	-0.0004273 	1331.7 
436.55 	-0.0004273 	1165.2 
437.05 	-0.0004273 	1165.2 
437.55 	-0.0004273 	1331.7 
438.05 	-0.0005341 	1165.2 
438.55 	-0.0005341 	998.74 
439.05 	-0.0004273 	1165.2 
439.55 	-0.0005341 	1165.2 
440.05 	-0.0005341 	1331.7 
440.55 	-0.0005341 	1165.2 
441.05 	-0.0005341 	1165.2 
441.55 	-0.0004273 	1165.2 
442.05 	-0.0005341 	1165.2 
442.55 	-0.0005341 	1165.2 
443.05 	-0.0005341 	1165.2 
443.55 	-0.0005341 	1331.7 
444.05 	-0.0005341 	1165.2 
444.55 	-0.0005341 	1165.2 
445.05 	-0.0005341 	998.74 
445.55 	-0.0005341 	1331.7 
446.05 	-0.0005341 	1165.2 
446.55 	-0.0005341 	1165.2 
447.05 	-0.0005341 	998.74 
447.55 	-0.0005341 	1165.2 
448.05 	-0.0005341 	1331.7 
448.55 	-0.0005341 	1165.2 
449.05 	-0.0005341 	1165.2 
449.55 	-0.0005341 	998.74 
450.05 	-0.0005341 	1331.7 
450.55 	-0.0005341 	1165.2 
451.05 	-0.0005341 	998.74 
451.55 	-0.0005341 	1165.2 
452.05 	-0.0005341 	1165.2 
452.55 	-0.0005341 	1165.2 
453.05 	-0.0005341 	1165.2 
453.55 	-0.0005341 	1165.2 
454.05 	-0.0005341 	1165.2 
454.55 	-0.0005341 	1331.7 
455.05 	-0.0005341 	1165.2 
455.55 	-0.0005341 	1165.2 
456.05 	-0.0005341 	1165.2 
456.55 	-0.0005341 	1165.2 
457.05 	-0.0005341 	1331.7 
457.55 	-0.0005341 	1165.2 
458.05 	-0.0005341 	1165.2 
458.55 	-0.0005341 	1165.2 
459.05 	-0.0006409 	1165.2 
459.55 	-0.0005341 	1165.2 
460.05 	-0.0005341 	998.74 
460.55 	-0.0005341 	1165.2 
461.05 	-0.0005341 	1165.2 
461.55 	-0.0005341 	1165.2 
462.05 	-0.0005341 	1165.2 
462.55 	-0.0005341 	1165.2 
463.05 	-0.0005341 	1331.7 
463.55 	-0.0005341 	1165.2 
464.05 	-0.0005341 	1165.2 
464.55 	-0.0005341 	1165.2 
465.05 	-0.0005341 	1331.7 
465.55 	-0.0005341 	1165.2 
466.05 	-0.0005341 	1165.2 
466.55 	-0.0005341 	1165.2 
467.05 	-0.0005341 	1165.2 
467.55 	-0.0005341 	1165.2 
468.05 	-0.0005341 	1165.2 
468.55 	-0.0005341 	998.74 
469.05 	-0.0005341 	1165.2 
469.55 	-0.0005341 	998.74 
470.05 	-0.0005341 	1165.2 
470.55 	-0.0005341 	1331.7 
471.05 	-0.0005341 	1165.2 
471.55 	-0.0005341 	1165.2 
472.05 	-0.0005341 	1165.2 
472.55 	-0.0005341 	1165.2 
473.05 	-0.0005341 	1165.2 
473.55 	-0.0005341 	1165.2 
474.05 	-0.0005341 	1165.2 
474.55 	-0.0005341 	1165.2 
475.05 	-0.0005341 	1165.2 
475.55 	-0.0005341 	1165.2 
476.05 	-0.0005341 	1165.2 
476.55 	-0.0006409 	1165.2 
477.05 	-0.0005341 	1165.2 
477.55 	-0.0005341 	1165.2 
478.05 	-0.0005341 	1165.2 
478.55 	-0.0005341 	1331.7 
479.05 	-0.0005341 	1165.2 
479.55 	-0.0005341 	1165.2 
480.05 	-0.0005341 	1165.2 
480.55 	-0.0005341 	998.74 
481.05 	-0.0005341 	1165.2 
481.55 	-0.0005341 	1165.2 
482.05 	-0.0005341 	1165.2 
482.55 	-0.0005341 	1165.2 
483.05 	-0.0005341 	998.74 
483.55 	-0.0005341 	1165.2 
484.05 	-0.0005341 	1165.2 
484.55 	-0.0005341 	1165.2 
485.05 	-0.0005341 	1165.2 
485.55 	-0.0005341 	1165.2 
486.05 	-0.0004273 	1165.2 
486.55 	-0.0005341 	1165.2 
487.05 	-0.0005341 	1165.2 
487.55 	-0.0005341 	1331.7 
488.05 	-0.0005341 	1165.2 
488.55 	-0.0005341 	998.74 
489.05 	-0.0005341 	1331.7 
489.55 	-0.0005341 	1165.2 
490.05 	-0.0005341 	1165.2 
490.55 	-0.0005341 	998.74 
491.05 	-0.0005341 	998.74 
491.55 	-0.0005341 	1165.2 
492.05 	-0.0005341 	1165.2 
492.55 	-0.0005341 	1165.2 
493.05 	-0.0005341 	1331.7 
493.55 	-0.0005341 	1165.2 
493.62 	-0.0004273 	1165.2 
494.12 	-0.0005341 	1165.2 
494.62 	-0.0005341 	1331.7 
495.12 	-0.0005341 	1165.2 
495.62 	-0.0005341 	1165.2 
496.12 	-0.0005341 	1165.2 
496.62 	-0.0005341 	1165.2 
497.12 	-0.0005341 	1331.7 
497.62 	-0.0005341 	1165.2 
498.12 	-0.0005341 	1165.2 
498.62 	-0.0005341 	1331.7 
499.12 	-0.0005341 	1331.7 
499.62 	-0.0005341 	1165.2 
500.12 	-0.0005341 	998.74 
500.62 	-0.0005341 	1165.2 
501.12 	-0.0005341 	1331.7 
501.62 	-0.0005341 	1165.2 
502.12 	-0.0005341 	1165.2 
502.62 	-0.0005341 	1331.7 
503.12 	-0.0005341 	1165.2 
503.62 	-0.0005341 	998.74 
504.12 	-0.0005341 	1165.2 
504.62 	-0.0006409 	1165.2 
505.12 	-0.0005341 	1165.2 
505.62 	-0.0005341 	998.74 
506.12 	-0.0005341 	1165.2 
506.62 	-0.0005341 	1165.2 
507.12 	-0.0005341 	1331.7 
507.62 	-0.0005341 	1165.2 
508.12 	-0.0005341 	1165.2 
508.62 	-0.0005341 	1165.2 
509.12 	-0.0005341 	1165.2 
509.62 	-0.0005341 	1165.2 
510.12 	-0.0005341 	998.74 
510.62 	-0.0005341 	1331.7 
511.12 	-0.0005341 	1165.2 
511.62 	-0.0005341 	1165.2 
512.12 	-0.0005341 	998.74 
512.62 	-0.0005341 	1165.2 
513.12 	-0.0005341 	1165.2 
513.62 	-0.0005341 	1165.2 
514.12 	-0.0005341 	1165.2 
514.62 	-0.0005341 	1165.2 
515.12 	-0.0005341 	1331.7 
515.62 	-0.0005341 	1165.2 
516.12 	-0.0005341 	998.74 
516.62 	-0.0005341 	998.74 
517.12 	-0.0005341 	998.74 
517.62 	-0.0005341 	1165.2 
518.12 	-0.0005341 	1165.2 
518.62 	-0.0005341 	1165.2 
519.12 	-0.0005341 	1165.2 
519.62 	-0.0005341 	1165.2 
520.12 	-0.0005341 	1331.7 
520.62 	-0.0005341 	1165.2 
521.12 	-0.0005341 	1165.2 
521.62 	-0.0005341 	998.74 
522.12 	-0.0005341 	1165.2 
522.62 	-0.0005341 	1331.7 
523.12 	-0.0005341 	1165.2 
523.62 	-0.0005341 	998.74 
524.12 	-0.0005341 	1165.2 
524.62 	-0.0005341 	1331.7 
525.12 	-0.0005341 	1165.2 
525.62 	-0.0003204 	1498.1 
526.08 	-0.0002136 	2163.9 
526.58 	-0.0001068 	2163.9 
526.97 	0.00000 	2829.8 
527.47 	0.00021324 	3329.1 
527.97 	0.00042647 	3995.0 
528.47 	0.00063971 	4161.4 
528.73 	0.00074633 	4827.2 
529.23 	0.00095956 	5160.2 
529.55 	0.0010662 	5826.0 
530.05 	0.0013860 	6158.9 
530.47 	0.0014927 	6824.7 
530.97 	0.0017059 	7157.6 
531.47 	0.0019191 	7823.5 
531.97 	0.0021324 	8322.8 
532.47 	0.0023456 	8988.7 
532.97 	0.0025588 	9488.0 
533.47 	0.0027721 	9987.4 
533.97 	0.0029853 	10487 
534.47 	0.0031985 	10986 
534.97 	0.0034118 	11486 
535.47 	0.0035184 	11818 
535.97 	0.0036250 	12151 
536.47 	0.0038383 	12651 
536.97 	0.0040515 	13150 
537.32 	0.0042647 	13816 
537.77 	0.0045846 	14482 
538.27 	0.0047978 	14981 
538.77 	0.0050111 	15480 
539.20 	0.0052243 	16146 
539.70 	0.0054375 	16646 
540.20 	0.0056508 	17145 
540.70 	0.0057574 	17644 
541.20 	0.0059706 	18144 
541.70 	0.0061839 	18477 
542.20 	0.0063971 	19143 
542.70 	0.0066103 	19642 
543.20 	0.0068236 	20141 
543.60 	0.0070368 	20807 
544.10 	0.0072500 	21306 
544.60 	0.0074633 	21806 
545.08 	0.0076765 	22472 
545.58 	0.0078897 	22805 
546.08 	0.0079964 	23137 
546.58 	0.0079964 	23137 
547.08 	0.0081030 	23304 
547.58 	0.0081030 	23304 
548.08 	0.0081030 	23137 
548.58 	0.0081030 	23137 
549.08 	0.0081030 	23304 
549.58 	0.0081030 	23304 
550.08 	0.0081030 	23304 
550.58 	0.0081030 	23137 
551.08 	0.0081030 	23304 
551.58 	0.0081030 	23304 
552.08 	0.0081030 	23304 
552.58 	0.0081030 	23304 
553.08 	0.0081030 	23137 
553.58 	0.0081030 	23137 
554.08 	0.0081030 	23470 
554.58 	0.0081030 	23470 
555.08 	0.0081030 	23304 
555.58 	0.0081030 	23304 
556.08 	0.0081030 	23304 
556.58 	0.0081030 	23304 
557.08 	0.0081030 	23304 
557.58 	0.0081030 	23304 
558.08 	0.0081030 	23137 
558.58 	0.0081030 	23137 
559.08 	0.0081030 	23304 
559.58 	0.0081030 	23304 
560.08 	0.0081030 	23304 
560.58 	0.0082096 	23304 
561.08 	0.0081030 	23304 
561.58 	0.0081030 	23304 
562.08 	0.0081030 	23304 
562.58 	0.0081030 	23304 
563.08 	0.0081030 	23304 
563.58 	0.0081030 	23304 
564.08 	0.0081030 	23470 
564.58 	0.0082096 	23304 
565.08 	0.0081030 	23137 
565.58 	0.0081030 	23304 
566.08 	0.0081030 	23304 
566.58 	0.0081030 	23470 
567.08 	0.0081030 	23304 
567.58 	0.0081030 	23304 
568.08 	0.0081030 	23137 
568.58 	0.0081030 	23304 
569.08 	0.0081030 	23304 
569.58 	0.0081030 	23304 
570.08 	0.0081030 	23137 
570.58 	0.0081030 	23304 
571.08 	0.0081030 	23304 
571.58 	0.0081030 	23470 
572.08 	0.0081030 	23304 
572.58 	0.0081030 	23304 
573.08 	0.0081030 	23304 
573.58 	0.0081030 	23304 
574.08 	0.0081030 	23304 
574.58 	0.0081030 	23304 
575.08 	0.0082096 	23304 
575.58 	0.0081030 	23304 
576.08 	0.0082096 	23304 
576.58 	0.0081030 	23304 
577.08 	0.0081030 	23304 
577.58 	0.0081030 	23304 
578.08 	0.0081030 	23304 
578.58 	0.0081030 	23304 
579.08 	0.0081030 	23304 
579.58 	0.0082096 	23304 
580.08 	0.0082096 	23304 
580.58 	0.0081030 	23137 
581.08 	0.0081030 	23304 
581.58 	0.0081030 	23137 
582.08 	0.0081030 	23304 
582.58 	0.0081030 	23137 
583.08 	0.0081030 	23304 
583.58 	0.0081030 	23304 
584.08 	0.0081030 	23304 
584.58 	0.0082096 	23304 
585.08 	0.0082096 	23304 
585.58 	0.0081030 	23470 
586.08 	0.0081030 	23304 
586.58 	0.0081030 	23304 
587.08 	0.0081030 	23304 
587.58 	0.0081030 	23304 
588.08 	0.0081030 	23304 
588.58 	0.0081030 	23304 
589.08 	0.0081030 	23137 
589.58 	0.0081030 	23304 
590.08 	0.0081030 	23470 
590.58 	0.0081030 	23470 
591.08 	0.0081030 	23304 
591.58 	0.0081030 	23304 
592.08 	0.0081030 	23304 
592.58 	0.0081030 	23470 
593.08 	0.0081030 	23304 
593.58 	0.0081030 	23304 
594.08 	0.0081030 	23137 
594.58 	0.0081030 	23137 
595.08 	0.0081030 	23304 
595.58 	0.0081030 	23304 
596.08 	0.0081030 	23304 
596.58 	0.0081030 	23137 
597.08 	0.0081030 	23137 
597.58 	0.0082096 	23470 
598.08 	0.0081030 	23304 
598.58 	0.0081030 	23304 
599.08 	0.0081030 	23304 
599.58 	0.0081030 	23304 
600.08 	0.0081030 	23304 
600.58 	0.0081030 	23304 
601.08 	0.0081030 	23304 
601.58 	0.0081030 	23304 
602.08 	0.0081030 	23304 
602.58 	0.0081030 	23304 
603.08 	0.0081030 	23304 
603.58 	0.0081030 	23304 
604.08 	0.0081030 	23470 
604.58 	0.0081030 	23470 
605.08 	0.0081030 	23304 
605.58 	0.0081030 	23304 
605.80 	0.0081030 	23304 
606.30 	0.0081030 	23304 
606.80 	0.0081030 	23304 
607.30 	0.0081030 	23304 
607.80 	0.0081030 	23304 
608.30 	0.0081030 	23304 
608.80 	0.0081030 	23304 
609.30 	0.0081030 	23304 
609.80 	0.0081030 	23470 
610.30 	0.0081030 	23304 
610.80 	0.0081030 	23304 
611.30 	0.0081030 	23304 
611.80 	0.0081030 	23304 
612.30 	0.0081030 	23304 
612.80 	0.0081030 	23304 
613.30 	0.0081030 	23304 
613.80 	0.0081030 	23137 
614.30 	0.0081030 	23304 
614.80 	0.0081030 	23304 
615.30 	0.0081030 	23304 
615.80 	0.0079964 	23304 
616.30 	0.0081030 	23304 
616.80 	0.0081030 	23304 
617.30 	0.0081030 	23304 
617.80 	0.0081030 	23304 
618.30 	0.0081030 	23304 
618.80 	0.0081030 	23304 
619.30 	0.0081030 	23304 
619.80 	0.0081030 	23304 
620.30 	0.0081030 	23137 
620.80 	0.0081030 	23137 
621.30 	0.0081030 	23304 
621.80 	0.0081030 	23304 
622.30 	0.0081030 	23304 
622.80 	0.0081030 	23304 
623.30 	0.0081030 	23304 
623.80 	0.0081030 	23304 
624.30 	0.0081030 	23304 
624.80 	0.0081030 	23304 
625.30 	0.0081030 	23137 
625.80 	0.0081030 	23304 
626.30 	0.0081030 	23304 
626.80 	0.0081030 	23304 
627.30 	0.0081030 	23137 
627.80 	0.0081030 	23304 
628.30 	0.0081030 	23304 
628.80 	0.0081030 	23304 
629.30 	0.0079964 	23304 
629.80 	0.0079964 	23304 
630.30 	0.0081030 	23304 
630.80 	0.0081030 	23304 
631.30 	0.0081030 	23304 
631.80 	0.0081030 	23304 
632.30 	0.0079964 	23304 
632.80 	0.0081030 	23304 
633.30 	0.0081030 	23304 
633.80 	0.0081030 	23304 
634.30 	0.0081030 	23304 
634.80 	0.0081030 	23304 
635.30 	0.0081030 	23304 
635.80 	0.0081030 	23304 
636.30 	0.0081030 	23137 
636.80 	0.0081030 	23137 
637.30 	0.0081030 	23304 
637.80 	0.0081030 	23304 
638.30 	0.0081030 	23304 
638.80 	0.0081030 	23304 
639.30 	0.0081030 	23304 
639.80 	0.0081030 	23304 
640.30 	0.0081030 	23304 
640.80 	0.0081030 	23304 
641.30 	0.0081030 	23304 
641.80 	0.0081030 	23137 
642.30 	0.0081030 	23304 
642.80 	0.0081030 	23470 
643.30 	0.0081030 	23304 
643.80 	0.0081030 	23304 
644.30 	0.0081030 	23137 
644.80 	0.0081030 	23304 
645.30 	0.0081030 	23470 
645.80 	0.0081030 	23304 
646.30 	0.0081030 	23304 
646.80 	0.0081030 	23304 
647.30 	0.0081030 	23304 
647.80 	0.0081030 	23304 
648.30 	0.0081030 	23304 
648.80 	0.0081030 	23304 
649.30 	0.0081030 	23304 
649.80 	0.0081030 	23304 
650.30 	0.0081030 	23304 
650.80 	0.0081030 	23304 
651.30 	0.0081030 	23304 
651.80 	0.0081030 	23304 
652.30 	0.0081030 	23304 
652.80 	0.0081030 	23304 
653.30 	0.0081030 	23304 
653.80 	0.0081030 	23304 
654.30 	0.0081030 	23304 
654.80 	0.0081030 	23304 
655.30 	0.0081030 	23304 
655.80 	0.0081030 	23304 
656.30 	0.0081030 	23304 
656.80 	0.0081030 	23304 
657.30 	0.0081030 	23304 
657.80 	0.0081030 	23304 
658.30 	0.0081030 	23304 
658.80 	0.0081030 	23304 
659.30 	0.0081030 	23304 
659.80 	0.0081030 	23304 
660.30 	0.0081030 	23304 
660.80 	0.0081030 	23304 
661.30 	0.0081030 	23470 
661.80 	0.0081030 	23304 
662.30 	0.0081030 	23304 
662.80 	0.0081030 	23304 
663.30 	0.0081030 	23304 
663.80 	0.0081030 	23304 
664.30 	0.0081030 	23304 
664.80 	0.0081030 	23137 
665.30 	0.0081030 	23304 
665.80 	0.0081030 	23304 
666.30 	0.0081030 	23304 
666.80 	0.0081030 	23137 
667.30 	0.0081030 	23304 
667.80 	0.0081030 	23304 
668.30 	0.0081030 	23304 
668.80 	0.0081030 	23304 
669.30 	0.0081030 	23304 
669.80 	0.0081030 	23304 
670.30 	0.0081030 	23304 
670.80 	0.0081030 	23304 
671.30 	0.0081030 	23304 
671.80 	0.0081030 	23470 
672.30 	0.0081030 	23304 
672.80 	0.0081030 	23304 
673.30 	0.0081030 	23137 
673.80 	0.0081030 	23304 
674.30 	0.0081030 	23470 
674.80 	0.0081030 	23304 
675.30 	0.0081030 	23304 
675.80 	0.0081030 	23304 
676.30 	0.0081030 	23304 
676.80 	0.0081030 	23304 
677.30 	0.0081030 	23304 
677.80 	0.0081030 	23304 
678.30 	0.0081030 	23304 
678.80 	0.0081030 	23304 
679.30 	0.0081030 	23304 
679.80 	0.0081030 	23304 
680.30 	0.0081030 	23304 
680.80 	0.0081030 	23304 
681.30 	0.0081030 	23470 
681.80 	0.0081030 	23470 
682.30 	0.0081030 	23137 
682.80 	0.0081030 	23137 
683.30 	0.0081030 	23304 
683.80 	0.0081030 	23304 
684.30 	0.0081030 	23304 
684.80 	0.0081030 	23304 
685.30 	0.0081030 	23304 
685.80 	0.0081030 	23304 
686.30 	0.0081030 	23304 
686.80 	0.0081030 	23304 
687.30 	0.0081030 	23304 
687.80 	0.0081030 	23304 
688.30 	0.0081030 	23304 
688.80 	0.0081030 	23304 
689.30 	0.0081030 	23304 
689.80 	0.0081030 	23304 
690.30 	0.0081030 	23304 
690.80 	0.0081030 	23304 
691.30 	0.0081030 	23304 
691.80 	0.0081030 	23304 
692.30 	0.0081030 	23304 
692.80 	0.0081030 	23304 
693.30 	0.0081030 	23304 
693.80 	0.0081030 	23470 
694.30 	0.0081030 	23304 
694.80 	0.0081030 	23304 
695.30 	0.0081030 	23304 
695.80 	0.0081030 	23304 
696.30 	0.0081030 	23304 
696.80 	0.0081030 	23304 
697.30 	0.0081030 	23304 
697.80 	0.0081030 	23304 
698.30 	0.0081030 	23304 
698.80 	0.0081030 	23470 
699.30 	0.0081030 	23304 
699.80 	0.0081030 	23304 
700.30 	0.0081030 	23304 
700.80 	0.0081030 	23137 
701.30 	0.0081030 	23470 
701.80 	0.0081030 	23304 
702.30 	0.0081030 	23304 
702.80 	0.0081030 	23304 
703.30 	0.0081030 	23304 
703.80 	0.0081030 	23304 
704.30 	0.0081030 	23304 
704.80 	0.0081030 	23137 
705.30 	0.0081030 	23304 
705.80 	0.0081030 	23304 
706.30 	0.0081030 	23637 
706.80 	0.0081030 	24136 
707.30 	0.0081030 	24636 
707.80 	0.0081030 	25135 
708.30 	0.0081030 	25468 
708.80 	0.0081030 	25967 
709.30 	0.0081030 	26467 
709.80 	0.0081030 	26966 
710.27 	0.0081030 	27632 
710.77 	0.0081030 	28131 
711.27 	0.0081030 	28464 
711.77 	0.0081030 	28464 
712.05 	0.0081030 	29130 
712.55 	0.0081030 	29629 
712.95 	0.0081030 	30295 
713.35 	0.0081030 	30961 
713.82 	0.0081030 	31627 
714.32 	0.0081030 	32293 
714.82 	0.0081030 	32626 
715.32 	0.0081030 	33125 
715.73 	0.0081030 	33791 
716.23 	0.0081030 	34124 
716.73 	0.0081030 	34623 
717.23 	0.0081030 	35289 
717.73 	0.0081030 	35788 
718.23 	0.0081030 	36288 
718.70 	0.0081030 	36953 
719.20 	0.0081030 	37453 
719.70 	0.0081030 	37786 
720.15 	0.0081030 	38452 
720.65 	0.0081030 	38951 
721.15 	0.0081030 	39284 
721.60 	0.0081030 	39950 
722.10 	0.0081030 	40449 
722.60 	0.0081030 	40948 
723.07 	0.0081030 	41614 
723.57 	0.0081030 	41947 
724.07 	0.0081030 	42446 
724.52 	0.0081030 	43112 
725.02 	0.0081030 	43445 
725.52 	0.0081030 	44111 
726.02 	0.0081030 	44610 
726.52 	0.0081030 	45110 
726.98 	0.0081030 	45776 
727.48 	0.0081030 	46275 
727.98 	0.0081030 	46608 
728.40 	0.0081030 	47274 
728.90 	0.0081030 	47607 
729.40 	0.0081030 	48272 
729.90 	0.0081030 	48772 
730.40 	0.0081030 	49271 
730.90 	0.0081030 	49771 
731.40 	0.0081030 	50270 
731.83 	0.0081030 	50936 
732.33 	0.0081030 	51269 
732.83 	0.0081030 	51768 
733.28 	0.0081030 	52434 
733.78 	0.0081030 	52933 
734.28 	0.0081030 	53266 
734.70 	0.0081030 	53932 
735.20 	0.0081030 	54265 
735.62 	0.0081030 	54931 
736.12 	0.0081030 	55430 
736.62 	0.0081030 	55929 
737.12 	0.0081030 	56429 
737.62 	0.0081030 	56928 
738.12 	0.0081030 	57594 
738.62 	0.0081030 	58093 
739.12 	0.0081030 	58593 
739.62 	0.0081030 	59092 
740.12 	0.0081030 	59592 
740.57 	0.0081030 	60257 
741.07 	0.0081030 	60590 
741.57 	0.0081030 	61256 
742.07 	0.0081030 	61755 
742.57 	0.0081030 	62088 
743.03 	0.0081030 	62754 
743.53 	0.0081030 	63254 
744.03 	0.0081030 	63753 
744.53 	0.0081030 	64252 
745.02 	0.0081030 	64918 
745.52 	0.0081030 	65418 
746.02 	0.0081030 	65917 
746.52 	0.0081030 	66416 
747.02 	0.0081030 	66916 
747.52 	0.0081030 	67415 
748.02 	0.0081030 	67914 
748.47 	0.0081030 	68580 
748.97 	0.0081030 	69080 
749.47 	0.0081030 	69579 
749.97 	0.0081030 	70078 
750.47 	0.0081030 	70578 
750.97 	0.0081030 	71244 
751.47 	0.0081030 	71576 
751.90 	0.0081030 	72242 
752.40 	0.0081030 	72575 
752.87 	0.0081030 	73241 
753.37 	0.0081030 	73740 
753.87 	0.0081030 	74240 
754.37 	0.0081030 	74739 
754.87 	0.0081030 	75405 
755.37 	0.0081030 	75738 
755.85 	0.0081030 	76404 
756.35 	0.0081030 	76903 
756.85 	0.0081030 	77402 
757.35 	0.0081030 	77902 
757.85 	0.0081030 	78401 
758.32 	0.0081030 	79067 
758.82 	0.0081030 	79566 
759.32 	0.0081030 	80066 
759.82 	0.0081030 	80565 
760.32 	0.0081030 	81064 
760.82 	0.0081030 	81564 
761.32 	0.0081030 	82063 
761.77 	0.0081030 	82729 
762.27 	0.0081030 	83062 
762.75 	0.0081030 	83728 
763.25 	0.0081030 	84227 
763.75 	0.0081030 	84727 
764.25 	0.0081030 	85226 
764.75 	0.0081030 	85725 
765.25 	0.0081030 	86391 
765.75 	0.0081030 	86890 
766.25 	0.0081030 	87390 
766.75 	0.0081030 	87889 
767.25 	0.0081030 	88389 
767.75 	0.0081030 	89054 
768.25 	0.0081030 	89554 
768.75 	0.0081030 	89887 
769.08 	0.0081030 	90552 
769.58 	0.0081030 	90885 
769.98 	0.0081030 	91551 
770.48 	0.0081030 	91718 
770.93 	0.0081030 	92384 
771.43 	0.0081030 	92883 
771.93 	0.0081030 	93382 
772.43 	0.0081030 	94048 
772.93 	0.0081030 	94547 
773.43 	0.0081030 	95047 
773.93 	0.0081030 	95546 
774.43 	0.0081030 	96212 
774.93 	0.0081030 	96545 
775.42 	0.0081030 	97211 
775.92 	0.0081030 	97544 
776.38 	0.0081030 	98209 
776.88 	0.0081030 	98542 
777.32 	0.0081030 	99208 
777.82 	0.0081030 	99708 
778.32 	0.0081030 	100210 
778.82 	0.0081030 	100710 
779.32 	0.0081030 	101210 
779.80 	0.0081030 	101870 
780.30 	0.0081030 	102200 
780.72 	0.0081030 	102870 
781.22 	0.0081030 	103200 
781.70 	0.0081030 	103870 
782.20 	0.0081030 	104370 
782.70 	0.0081030 	104870 
783.20 	0.0081030 	105370 
783.70 	0.0081030 	105870 
784.20 	0.0081030 	106530 
784.70 	0.0081030 	107030 
785.20 	0.0081030 	107360 
785.63 	0.0081030 	108030 
786.13 	0.0081030 	108530 
786.63 	0.0081030 	109030 
787.13 	0.0081030 	109700 
787.63 	0.0081030 	110190 
788.13 	0.0081030 	110530 
788.55 	0.0081030 	111190 
789.05 	0.0081030 	111690 
789.55 	0.0081030 	112190 
790.05 	0.0081030 	112690 
790.55 	0.0081030 	113190 
791.02 	0.0081030 	113860 
791.52 	0.0081030 	114190 
792.02 	0.0081030 	114690 
792.45 	0.0081030 	115350 
792.95 	0.0081030 	115690 
793.45 	0.0081030 	116350 
793.95 	0.0081030 	116850 
794.45 	0.0081030 	117350 
794.95 	0.0081030 	117850 
795.45 	0.0081030 	118350 
795.95 	0.0081030 	119020 
796.45 	0.0081030 	119520 
796.95 	0.0081030 	120020 
797.45 	0.0081030 	120510 
797.93 	0.0081030 	121180 
798.43 	0.0081030 	121510 
798.93 	0.0081030 	122010 
799.42 	0.0081030 	122680 
799.92 	0.0081030 	123010 
800.30 	0.0081030 	123680 
800.80 	0.0081030 	124010 
801.22 	0.0081030 	124680 
801.72 	0.0081030 	125010 
802.20 	0.0081030 	125670 
802.70 	0.0081030 	126010 
803.17 	0.0081030 	126670 
803.67 	0.0081030 	127170 
804.17 	0.0081030 	127670 
804.67 	0.0081030 	128170 
805.17 	0.0081030 	128670 
805.67 	0.0081030 	129170 
806.17 	0.0081030 	129840 
806.67 	0.0081030 	130340 
807.17 	0.0081030 	130840 
807.67 	0.0081030 	131500 
808.17 	0.0081030 	131830 
808.67 	0.0081030 	132330 
809.17 	0.0081030 	132830 
809.67 	0.0081030 	133500 
810.17 	0.0081030 	134000 
810.67 	0.0081030 	134500 
811.17 	0.0081030 	135160 
811.67 	0.0081030 	135660 
812.17 	0.0081030 	136160 
812.67 	0.0081030 	136660 
813.17 	0.0081030 	137160 
813.67 	0.0081030 	137830 
814.17 	0.0081030 	138160 
814.67 	0.0081030 	138820 
815.17 	0.0081030 	139320 
815.67 	0.0081030 	139820 
816.17 	0.0081030 	140490 
816.67 	0.0081030 	140990 
817.17 	0.0081030 	141490 
817.67 	0.0081030 	141990 
818.17 	0.0081030 	142490 
818.67 	0.0081030 	142990 
819.17 	0.0081030 	143650 
819.67 	0.0081030 	144150 
820.17 	0.0081030 	144650 
820.67 	0.0081030 	145150 
821.17 	0.0081030 	145650 
821.67 	0.0081030 	146320 
822.17 	0.0081030 	146650 
822.67 	0.0081030 	147310 
823.17 	0.0081030 	147650 
823.67 	0.0081030 	148310 
824.17 	0.0081030 	148810 
824.67 	0.0081030 	149480 
825.17 	0.0081030 	149980 
825.67 	0.0081030 	150480 
826.17 	0.0081030 	150980 
826.67 	0.0081030 	151480 
827.17 	0.0081030 	151980 
827.67 	0.0081030 	152470 
828.17 	0.0081030 	153140 
828.67 	0.0081030 	153640 
829.17 	0.0081030 	154140 
829.67 	0.0081030 	154800 
830.17 	0.0081030 	155300 
830.67 	0.0081030 	155800 
831.17 	0.0081030 	156300 
831.67 	0.0081030 	156800 
832.17 	0.0081030 	157300 
832.67 	0.0081030 	157970 
833.17 	0.0081030 	158470 
833.67 	0.0081030 	158800 
834.17 	0.0081030 	159630 
834.67 	0.0081030 	159960 
835.17 	0.0081030 	160460 
835.67 	0.0081030 	161130 
836.17 	0.0081030 	161630 
836.67 	0.0081030 	162130 
837.17 	0.0081030 	162790 
837.67 	0.0081030 	163290 
838.17 	0.0081030 	163630 
838.67 	0.0081030 	164290 
839.17 	0.0081030 	164790 
839.67 	0.0081030 	165290 
840.17 	0.0081030 	165790 
840.67 	0.0081030 	166460 
841.17 	0.0081030 	166960 
841.67 	0.0081030 	167460 
842.17 	0.0081030 	167950 
842.67 	0.0081030 	168620 
843.17 	0.0081030 	169120 
843.67 	0.0081030 	169620 
844.17 	0.0081030 	170120 
844.67 	0.0081030 	170620 
845.17 	0.0081030 	171120 
845.67 	0.0081030 	171620 
846.17 	0.0081030 	172280 
846.67 	0.0081030 	172780 
847.17 	0.0081030 	173280 
847.67 	0.0081030 	173780 
848.17 	0.0081030 	174280 
848.67 	0.0081030 	174780 
849.17 	0.0081030 	175450 
849.67 	0.0081030 	175940 
850.17 	0.0081030 	176440 
850.67 	0.0081030 	176940 
851.17 	0.0081030 	177610 
851.67 	0.0081030 	178110 
852.17 	0.0081030 	178610 
852.67 	0.0081030 	179110 
853.17 	0.0081030 	179610 
853.67 	0.0081030 	180110 
854.17 	0.0081030 	180610 
854.67 	0.0081030 	181270 
855.17 	0.0081030 	181770 
855.67 	0.0081030 	182440 
856.17 	0.0081030 	182940 
856.67 	0.0081030 	183440 
857.17 	0.0081030 	183930 
857.67 	0.0081030 	184270 
858.17 	0.0081030 	184930 
858.67 	0.0081030 	185430 
859.17 	0.0081030 	186100 
859.67 	0.0081030 	186600 
860.17 	0.0081030 	187100 
860.67 	0.0081030 	187600 
861.17 	0.0081030 	188100 
861.67 	0.0081030 	188760 
862.17 	0.0081030 	189260 
862.67 	0.0081030 	189930 
863.17 	0.0081030 	190260 
863.67 	0.0081030 	190760 
864.17 	0.0081030 	191260 
864.67 	0.0081030 	191920 
865.17 	0.0081030 	192420 
865.67 	0.0081030 	193090 
866.17 	0.0081030 	193420 
866.67 	0.0081030 	193920 
867.17 	0.0081030 	194590 
867.67 	0.0081030 	195090 
868.17 	0.0081030 	195590 
868.67 	0.0081030 	196090 
869.17 	0.0081030 	196590 
869.67 	0.0081030 	197080 
870.17 	0.0081030 	197750 
870.67 	0.0081030 	198250 
871.17 	0.0081030 	198750 
871.67 	0.0081030 	199250 
872.17 	0.0081030 	199910 
872.67 	0.0081030 	200250 
873.17 	0.0081030 	200910 
873.67 	0.0081030 	201410 
874.17 	0.0081030 	201910 
874.67 	0.0081030 	202580 
875.17 	0.0081030 	202910 
875.67 	0.0081030 	203580 
876.17 	0.0081030 	204080 
876.67 	0.0081030 	204580 
877.17 	0.0081030 	205070 
877.67 	0.0081030 	205740 
878.17 	0.0081030 	206240 
878.67 	0.0081030 	206740 
879.17 	0.0081030 	207240 
879.67 	0.0081030 	207740 
880.17 	0.0081030 	208400 
880.67 	0.0081030 	208900 
881.17 	0.0081030 	209400 
881.67 	0.0081030 	209900 
882.17 	0.0081030 	210400 
882.67 	0.0081030 	211070 
883.17 	0.0081030 	211570 
883.67 	0.0081030 	212070 
884.17 	0.0081030 	212570 
884.67 	0.0081030 	213060 
885.17 	0.0081030 	213730 
885.67 	0.0081030 	214060 
886.17 	0.0081030 	214730 
886.67 	0.0081030 	215230 
887.17 	0.0081030 	215730 
887.67 	0.0081030 	216230 
888.17 	0.0081030 	216890 
888.67 	0.0081030 	217390 
889.17 	0.0081030 	217890 
889.67 	0.0081030 	218390 
890.17 	0.0081030 	218890 
890.67 	0.0081030 	219390 
891.17 	0.0081030 	220060 
891.67 	0.0081030 	220560 
892.17 	0.0081030 	221050 
892.67 	0.0081030 	221720 
893.17 	0.0081030 	222220 
893.67 	0.0081030 	222720 
894.17 	0.0081030 	223220 
894.67 	0.0081030 	223720 
895.17 	0.0081030 	224220 
895.67 	0.0081030 	224720 
896.17 	0.0081030 	225220 
896.67 	0.0081030 	225880 
897.17 	0.0081030 	226380 
897.67 	0.0081030 	226880 
898.17 	0.0081030 	227380 
898.67 	0.0081030 	227880 
899.17 	0.0081030 	228380 
899.67 	0.0081030 	229040 
900.17 	0.0081030 	229540 
900.67 	0.0081030 	230040 
901.17 	0.0081030 	230540 
901.67 	0.0081030 	231210 
902.17 	0.0081030 	231540 
902.67 	0.0081030 	232210 
903.17 	0.0081030 	232710 
903.67 	0.0081030 	233210 
904.17 	0.0081030 	233870 
904.67 	0.0081030 	234200 
905.17 	0.0081030 	234870 
905.67 	0.0081030 	235370 
906.17 	0.0081030 	236040 
906.67 	0.0081030 	236370 
907.17 	0.0081030 	237030 
907.67 	0.0081030 	237530 
908.17 	0.0081030 	238030 
908.67 	0.0081030 	238530 
909.17 	0.0081030 	239200 
909.67 	0.0081030 	239700 
910.17 	0.0081030 	240200 
910.67 	0.0081030 	240700 
911.17 	0.0081030 	241200 
911.67 	0.0081030 	241700 
912.17 	0.0081030 	242190 
912.67 	0.0081030 	242860 
913.17 	0.0081030 	243360 
913.67 	0.0081030 	243860 
914.17 	0.0081030 	244360 
914.67 	0.0081030 	244860 
915.17 	0.0081030 	245360 
915.67 	0.0081030 	246020 
916.17 	0.0081030 	246520 
916.67 	0.0081030 	247020 
917.17 	0.0081030 	247520 
917.67 	0.0081030 	248190 
918.17 	0.0081030 	248690 
918.67 	0.0081030 	249350 
919.17 	0.0081030 	249690 
919.67 	0.0081030 	250180 
920.17 	0.0081030 	250680 
920.67 	0.0081030 	251350 
921.17 	0.0081030 	251850 
921.67 	0.0081030 	252510 
922.17 	0.0081030 	252850 
922.67 	0.0081030 	253510 
923.17 	0.0081030 	254010 
923.67 	0.0081030 	254510 
924.17 	0.0081030 	254850 
924.67 	0.0081030 	255680 
925.17 	0.0081030 	256010 
925.67 	0.0081030 	256680 
926.17 	0.0081030 	257180 
926.67 	0.0081030 	257680 
927.17 	0.0081030 	258170 
927.67 	0.0081030 	258840 
928.17 	0.0081030 	259340 
928.67 	0.0081030 	259840 
929.17 	0.0081030 	260340 
929.67 	0.0081030 	261000 
930.17 	0.0081030 	261500 
930.67 	0.0081030 	261840 
931.17 	0.0081030 	262500 
931.67 	0.0081030 	263000 
932.17 	0.0081030 	263500 
932.67 	0.0081030 	264000 
933.17 	0.0081030 	264500 
933.67 	0.0081030 	265170 
934.17 	0.0081030 	265670 
934.67 	0.0081030 	266160 
935.17 	0.0081030 	266660 
935.67 	0.0081030 	267160 
936.17 	0.0081030 	267830 
936.67 	0.0081030 	268330 
937.17 	0.0081030 	268830 
937.67 	0.0081030 	269330 
938.17 	0.0081030 	269830 
938.67 	0.0081030 	270330 
939.17 	0.0081030 	270990 
939.67 	0.0081030 	271490 
940.17 	0.0081030 	271990 
940.67 	0.0081030 	272490 
941.17 	0.0081030 	273160 
941.67 	0.0081030 	273490 
942.17 	0.0081030 	274150 
942.67 	0.0081030 	274490 
943.17 	0.0081030 	275150 
943.67 	0.0081030 	275820 
943.98 	0.0081030 	272490 
944.00 	0.0081030 	268490 
944.10 	0.0081030 	270490 
944.22 	0.0081030 	272490 
944.40 	0.0081030 	274490 
944.85 	0.0081030 	276480 
945.35 	0.0081030 	277150 
945.85 	0.0081030 	277820 
946.35 	0.0081030 	278320 
946.85 	0.0081030 	278980 
947.35 	0.0081030 	279480 
947.85 	0.0081030 	279980 
948.35 	0.0081030 	280650 
948.85 	0.0081030 	280980 
949.35 	0.0081030 	281640 
949.85 	0.0081030 	282140 
950.35 	0.0081030 	282640 
950.85 	0.0081030 	283310 
951.35 	0.0081030 	283810 
951.85 	0.0081030 	284310 
952.35 	0.0081030 	284810 
952.85 	0.0081030 	285470 
953.35 	0.0081030 	285970 
953.85 	0.0081030 	286470 
954.35 	0.0081030 	286970 
954.85 	0.0081030 	287470 
955.35 	0.0081030 	287970 
955.85 	0.0081030 	288800 
956.35 	0.0081030 	289140 
956.85 	0.0081030 	289630 
957.35 	0.0081030 	290130 
957.85 	0.0081030 	290800 
958.35 	0.0081030 	291300 
958.85 	0.0081030 	291800 
959.35 	0.0081030 	292300 
959.85 	0.0081030 	292800 
960.35 	0.0081030 	293460 
960.85 	0.0081030 	293960 
961.35 	0.0081030 	294460 
961.85 	0.0081030 	294960 
962.35 	0.0081030 	295460 
962.85 	0.0081030 	296130 
963.35 	0.0081030 	296630 
963.85 	0.0081030 	297130 
964.35 	0.0081030 	297620 
964.85 	0.0081030 	298290 
965.35 	0.0081030 	298620 
965.85 	0.0081030 	299120 
966.35 	0.0081030 	299790 
966.85 	0.0081030 	300290 
967.35 	0.0081030 	300790 
967.85 	0.0081030 	301450 
968.35 	0.0081030 	301950 
968.85 	0.0081030 	302450 
969.35 	0.0081030 	302950 
969.85 	0.0081030 	303450 
970.35 	0.0081030 	303950 
970.85 	0.0081030 	304620 
971.35 	0.0081030 	305120 
971.85 	0.0081030 	305610 
972.35 	0.0081030 	306110 
972.85 	0.0081030 	306610 
973.35 	0.0081030 	307110 
973.85 	0.0081030 	307780 
974.35 	0.0081030 	308280 
974.85 	0.0081030 	308780 
975.35 	0.0081030 	309280 
975.85 	0.0081030 	309780 
976.35 	0.0081030 	310440 
976.85 	0.0081030 	310770 
977.35 	0.0081030 	311440 
977.85 	0.0081030 	311940 
978.35 	0.0081030 	312440 
978.85 	0.0081030 	313110 
979.35 	0.0081030 	313600 
979.85 	0.0081030 	314100 
980.35 	0.0081030 	314600 
980.85 	0.0081030 	315100 
981.35 	0.0081030 	315600 
981.85 	0.0081030 	316270 
982.35 	0.0081030 	316600 
982.85 	0.0081030 	317270 
983.35 	0.0081030 	317770 
983.85 	0.0081030 	318270 
984.35 	0.0081030 	318760 
984.85 	0.0081030 	319430 
985.35 	0.0081030 	319760 
985.85 	0.0081030 	320260 
986.35 	0.0081030 	320760 
986.85 	0.0081030 	321430 
987.35 	0.0081030 	321930 
987.85 	0.0081030 	322430 
988.35 	0.0081030 	322930 
988.85 	0.0081030 	323590 
989.35 	0.0081030 	324090 
989.85 	0.0081030 	324590 
990.35 	0.0081030 	325090 
990.85 	0.0081030 	325590 
991.35 	0.0081030 	325260 
991.85 	0.0081030 	325420 
992.20 	0.0081030 	322260 
992.22 	0.0081030 	318430 
992.25 	0.0081030 	315270 
992.27 	0.0081030 	312440 
992.28 	0.0081030 	306280 
992.30 	0.0081030 	295460 
992.32 	0.0081030 	254680 
992.33 	0.0081030 	118680 
