Tempo(s)	Deformação(mm)	Força(N)
0.016667 	0.00000 	166.46 
0.51667 	0.00000 	166.46 
1.0167 	0.00010662 	499.37 
1.5167 	0.00010662 	832.28 
2.0167 	0.00021324 	1165.2 
2.5167 	0.00021324 	1331.7 
3.0167 	0.00021324 	1331.7 
3.5167 	0.00031985 	1664.6 
3.8833 	0.00042647 	2330.4 
4.3833 	0.00053309 	2829.8 
4.8833 	0.00063971 	3162.7 
5.3833 	0.00074633 	3495.6 
5.8833 	0.00063971 	3329.1 
6.3833 	0.00074633 	3828.5 
6.7667 	0.00085294 	4494.3 
7.2667 	0.0010662 	4827.2 
7.5500 	0.0011728 	5493.1 
7.8833 	0.0013860 	6158.9 
8.2500 	0.0014927 	6824.7 
8.6333 	0.0015993 	7490.6 
9.0500 	0.0018125 	8156.4 
9.4500 	0.0020257 	8822.2 
9.8667 	0.0021324 	9488.0 
10.367 	0.0023456 	9987.4 
10.733 	0.0024522 	10653 
11.233 	0.0025588 	10986 
11.583 	0.0026655 	11652 
12.083 	0.0027721 	12151 
12.583 	0.0029853 	12651 
13.067 	0.0030919 	13317 
13.567 	0.0031985 	13649 
14.067 	0.0033052 	13982 
14.567 	0.0033052 	14315 
15.067 	0.0034118 	14648 
15.450 	0.0035184 	15314 
15.867 	0.0037316 	15980 
16.317 	0.0038383 	16646 
16.800 	0.0040515 	17312 
17.300 	0.0041581 	17811 
17.800 	0.0042647 	18144 
18.133 	0.0043713 	18810 
18.633 	0.0044780 	19143 
19.133 	0.0045846 	19642 
19.633 	0.0046912 	20141 
20.133 	0.0047978 	20474 
20.567 	0.0050111 	21140 
21.050 	0.0051177 	21806 
21.550 	0.0053309 	22305 
22.050 	0.0053309 	22805 
22.550 	0.0054375 	23137 
23.050 	0.0055441 	23137 
23.550 	0.0055441 	23304 
24.050 	0.0055441 	23304 
24.550 	0.0055441 	23304 
25.050 	0.0055441 	23137 
25.550 	0.0055441 	23304 
26.050 	0.0055441 	23304 
26.550 	0.0055441 	23304 
27.050 	0.0055441 	23304 
27.550 	0.0055441 	23304 
28.050 	0.0055441 	23304 
28.550 	0.0055441 	23470 
29.050 	0.0055441 	23470 
29.550 	0.0054375 	23304 
30.050 	0.0055441 	23304 
30.550 	0.0055441 	23304 
31.050 	0.0055441 	23470 
31.550 	0.0055441 	23304 
32.050 	0.0055441 	23304 
32.550 	0.0055441 	23304 
33.050 	0.0055441 	23304 
33.550 	0.0054375 	23304 
34.050 	0.0055441 	23304 
34.550 	0.0055441 	23304 
35.050 	0.0055441 	23304 
35.550 	0.0055441 	23304 
36.050 	0.0055441 	23137 
36.550 	0.0055441 	23304 
37.050 	0.0055441 	23304 
37.550 	0.0055441 	23470 
38.050 	0.0055441 	23304 
38.550 	0.0055441 	23304 
39.050 	0.0055441 	23304 
39.550 	0.0055441 	23304 
40.050 	0.0055441 	23304 
40.550 	0.0055441 	23304 
41.050 	0.0055441 	23304 
41.550 	0.0055441 	23304 
42.050 	0.0055441 	23304 
42.550 	0.0055441 	23304 
43.050 	0.0055441 	23304 
43.550 	0.0055441 	23137 
44.050 	0.0055441 	23304 
44.550 	0.0055441 	23304 
45.050 	0.0055441 	23304 
45.550 	0.0055441 	23137 
46.050 	0.0055441 	23304 
46.550 	0.0055441 	23470 
47.050 	0.0055441 	23470 
47.550 	0.0055441 	23304 
48.050 	0.0055441 	23304 
48.550 	0.0055441 	23470 
49.050 	0.0055441 	23470 
49.550 	0.0054375 	23304 
50.050 	0.0055441 	23304 
50.550 	0.0055441 	23304 
51.050 	0.0055441 	23304 
51.550 	0.0054375 	23304 
52.050 	0.0055441 	23304 
52.550 	0.0055441 	23304 
53.050 	0.0055441 	23304 
53.550 	0.0055441 	23304 
54.050 	0.0055441 	23137 
54.550 	0.0055441 	23304 
55.050 	0.0055441 	23304 
55.550 	0.0055441 	23304 
56.050 	0.0055441 	23304 
56.550 	0.0055441 	23137 
57.050 	0.0055441 	23304 
57.550 	0.0055441 	23304 
58.050 	0.0055441 	23137 
58.550 	0.0055441 	23137 
59.050 	0.0055441 	23304 
59.550 	0.0055441 	23470 
60.050 	0.0055441 	23304 
60.550 	0.0055441 	23137 
61.050 	0.0054375 	23137 
61.550 	0.0055441 	23304 
62.050 	0.0055441 	23470 
62.550 	0.0055441 	23470 
63.050 	0.0055441 	23304 
63.550 	0.0055441 	23137 
64.050 	0.0055441 	23304 
64.550 	0.0054375 	23470 
65.050 	0.0055441 	23470 
65.550 	0.0055441 	23304 
66.050 	0.0055441 	23304 
66.550 	0.0055441 	23470 
67.050 	0.0055441 	23304 
67.550 	0.0055441 	23304 
68.050 	0.0055441 	23304 
68.550 	0.0055441 	23304 
69.050 	0.0055441 	23304 
69.550 	0.0055441 	23304 
70.050 	0.0055441 	23304 
70.550 	0.0055441 	23304 
71.050 	0.0055441 	23470 
71.550 	0.0055441 	23304 
72.050 	0.0055441 	23304 
72.550 	0.0055441 	23304 
73.050 	0.0055441 	23304 
73.550 	0.0055441 	23304 
74.050 	0.0054375 	23304 
74.550 	0.0055441 	23137 
75.050 	0.0054375 	23304 
75.550 	0.0055441 	23304 
76.050 	0.0055441 	23304 
76.550 	0.0055441 	23304 
77.050 	0.0055441 	23304 
77.550 	0.0055441 	23304 
78.050 	0.0055441 	23470 
78.550 	0.0055441 	23304 
79.050 	0.0055441 	23137 
79.550 	0.0055441 	23304 
80.050 	0.0055441 	23304 
80.550 	0.0055441 	23470 
81.050 	0.0054375 	23304 
81.550 	0.0054375 	23304 
82.050 	0.0055441 	23304 
82.550 	0.0055441 	23470 
82.917 	0.0054375 	22805 
83.417 	0.0054375 	22472 
83.917 	0.0053309 	22139 
84.417 	0.0052243 	21639 
84.917 	0.0050111 	20974 
85.417 	0.0049044 	20474 
85.883 	0.0047978 	19808 
86.383 	0.0045846 	19309 
86.883 	0.0044780 	18810 
87.383 	0.0042647 	18310 
87.883 	0.0041581 	17811 
88.383 	0.0040515 	17312 
88.883 	0.0039449 	16979 
89.383 	0.0038383 	16479 
89.883 	0.0038383 	16146 
90.383 	0.0037316 	15980 
90.717 	0.0036250 	15314 
91.117 	0.0034118 	14648 
91.550 	0.0031985 	13982 
92.050 	0.0030919 	13483 
92.550 	0.0028787 	12984 
92.983 	0.0027721 	12318 
93.483 	0.0026655 	11985 
93.950 	0.0025588 	11319 
94.450 	0.0023456 	10820 
94.950 	0.0023456 	10487 
95.383 	0.0021324 	9820.9 
95.883 	0.0020257 	9488.0 
96.350 	0.0019191 	8822.2 
96.850 	0.0017059 	8322.8 
97.350 	0.0015993 	7823.5 
97.850 	0.0014927 	7490.6 
98.267 	0.0013860 	6824.7 
98.767 	0.0012794 	6658.3 
99.100 	0.0011728 	5992.4 
99.600 	0.0010662 	5659.5 
100.10 	0.00095956 	5160.2 
100.60 	0.00085294 	4827.2 
101.02 	0.00074633 	4161.4 
101.52 	0.00063971 	3828.5 
102.02 	0.00053309 	3495.6 
102.52 	0.00042647 	2996.2 
103.02 	0.00031985 	2829.8 
103.52 	0.00031985 	2496.9 
104.02 	0.00021324 	2496.9 
104.52 	0.00021324 	2330.4 
105.02 	0.00010662 	1997.5 
105.52 	0.00010662 	1997.5 
106.02 	0.00010662 	1831.0 
106.52 	0.00010662 	1997.5 
107.02 	0.00010662 	1831.0 
107.52 	0.00010662 	1831.0 
108.02 	0.00000 	1831.0 
108.52 	0.00000 	1831.0 
109.02 	0.00010662 	1831.0 
109.52 	0.00010662 	1831.0 
110.02 	0.00000 	1831.0 
110.52 	0.00010662 	1831.0 
111.02 	0.00010662 	1664.6 
111.52 	0.00000 	1664.6 
112.02 	0.00000 	1664.6 
112.52 	0.00010662 	1498.1 
113.02 	0.00000 	1664.6 
113.52 	0.00000 	1664.6 
114.02 	0.00010662 	1331.7 
114.52 	0.00000 	1331.7 
115.02 	0.00000 	1331.7 
115.52 	0.00000 	1331.7 
116.02 	0.00000 	1331.7 
116.52 	0.00000 	1331.7 
117.02 	0.00000 	1331.7 
117.52 	0.00000 	1165.2 
118.02 	0.00000 	1165.2 
118.52 	0.00000 	1165.2 
119.02 	0.00000 	1165.2 
119.52 	0.00000 	1165.2 
120.02 	0.00000 	1165.2 
120.52 	0.00000 	1165.2 
121.02 	0.00000 	1165.2 
121.52 	0.00000 	1165.2 
122.02 	0.00000 	1165.2 
122.52 	0.00000 	1165.2 
123.02 	0.00010662 	1165.2 
123.52 	0.00000 	1165.2 
124.02 	0.00000 	1165.2 
124.52 	0.00000 	1165.2 
125.02 	0.00000 	1165.2 
125.52 	0.00000 	1165.2 
126.02 	0.00000 	1165.2 
126.52 	0.00000 	1165.2 
127.02 	0.00000 	1165.2 
127.52 	0.00000 	998.74 
128.02 	0.00000 	1165.2 
128.52 	0.00000 	1165.2 
129.02 	0.00000 	1165.2 
129.52 	0.00000 	1165.2 
130.02 	0.00000 	1165.2 
130.52 	0.00000 	1165.2 
131.02 	0.00000 	1331.7 
131.52 	0.00000 	1165.2 
132.02 	0.00000 	1165.2 
132.52 	0.00000 	1165.2 
133.02 	0.00000 	1165.2 
133.52 	0.00000 	1165.2 
134.02 	0.00000 	1331.7 
134.52 	0.00000 	1331.7 
135.02 	0.00000 	1165.2 
135.52 	0.00000 	1165.2 
136.02 	0.00000 	1165.2 
136.52 	0.00000 	1165.2 
137.02 	0.00000 	1331.7 
137.52 	0.00010662 	1331.7 
138.02 	0.00000 	998.74 
138.52 	0.00000 	1165.2 
139.02 	0.00000 	1165.2 
139.52 	0.00000 	1331.7 
140.02 	0.00000 	1165.2 
140.52 	0.00000 	1165.2 
141.02 	0.00000 	1331.7 
141.52 	0.00000 	1165.2 
142.02 	0.00000 	998.74 
142.52 	0.00000 	1165.2 
143.02 	0.00000 	1165.2 
143.52 	0.00000 	1331.7 
144.02 	0.00000 	1165.2 
144.52 	0.00000 	1165.2 
145.02 	0.00000 	1165.2 
145.52 	0.00000 	1165.2 
146.02 	0.00000 	1165.2 
146.52 	0.00000 	998.74 
147.02 	0.00000 	1165.2 
147.52 	0.00000 	1331.7 
148.02 	0.00000 	1165.2 
148.52 	0.00000 	1165.2 
149.02 	0.00000 	1165.2 
149.52 	0.00000 	1165.2 
150.02 	0.00000 	1165.2 
150.52 	0.00000 	1165.2 
151.02 	0.00000 	1165.2 
151.52 	0.00000 	1165.2 
152.02 	0.00000 	1331.7 
152.52 	0.00000 	1165.2 
153.02 	0.00000 	1165.2 
153.52 	0.00000 	1331.7 
154.02 	0.00000 	1331.7 
154.52 	0.00000 	1165.2 
155.02 	0.00000 	1165.2 
155.52 	0.00000 	1331.7 
156.02 	0.00000 	1165.2 
156.52 	0.00000 	1165.2 
157.02 	0.00000 	1165.2 
157.52 	0.00000 	1165.2 
158.02 	0.00000 	1165.2 
158.52 	0.00000 	998.74 
159.02 	0.00000 	1165.2 
159.52 	0.00000 	1165.2 
160.02 	0.00000 	1165.2 
160.52 	0.00000 	1165.2 
161.02 	0.00000 	1165.2 
161.52 	0.00000 	1331.7 
162.02 	0.00000 	1331.7 
162.52 	0.00000 	1165.2 
163.02 	0.00000 	1165.2 
163.52 	0.00000 	998.74 
164.02 	0.00000 	1331.7 
164.52 	0.00000 	1331.7 
165.02 	0.00000 	1165.2 
165.52 	0.00000 	1165.2 
166.02 	0.00000 	1331.7 
166.52 	0.00000 	1498.1 
167.02 	0.00010662 	1831.0 
167.52 	0.00010662 	1997.5 
168.02 	0.00031985 	2496.9 
168.52 	0.00031985 	2996.2 
169.02 	0.00042647 	3162.7 
169.52 	0.00042647 	3329.1 
170.02 	0.00053309 	3329.1 
170.52 	0.00063971 	3662.0 
170.87 	0.00074633 	4327.9 
171.37 	0.00085294 	4827.2 
171.63 	0.0010662 	5493.1 
172.03 	0.0011728 	6158.9 
172.42 	0.0013860 	6824.7 
172.92 	0.0014927 	7324.1 
173.25 	0.0017059 	7989.9 
173.67 	0.0018125 	8655.8 
174.13 	0.0020257 	9321.6 
174.60 	0.0021324 	9987.4 
175.10 	0.0022390 	10320 
175.42 	0.0023456 	10986 
175.92 	0.0024522 	11486 
176.42 	0.0026655 	12151 
176.92 	0.0027721 	12484 
177.42 	0.0028787 	12984 
177.92 	0.0029853 	13483 
178.42 	0.0030919 	13816 
178.85 	0.0031985 	14482 
179.35 	0.0033052 	14482 
179.85 	0.0033052 	14981 
180.15 	0.0035184 	15647 
180.57 	0.0036250 	16313 
181.03 	0.0038383 	16979 
181.53 	0.0039449 	17478 
182.03 	0.0040515 	18144 
182.53 	0.0042647 	18643 
183.03 	0.0043713 	19143 
183.53 	0.0044780 	19642 
184.03 	0.0045846 	19975 
184.53 	0.0046912 	20308 
184.85 	0.0047978 	20974 
185.35 	0.0050111 	21473 
185.80 	0.0051177 	22139 
186.30 	0.0052243 	22638 
186.80 	0.0053309 	22971 
187.30 	0.0054375 	23137 
187.80 	0.0054375 	23304 
188.30 	0.0054375 	23304 
188.80 	0.0054375 	23304 
189.30 	0.0054375 	23137 
189.80 	0.0053309 	23304 
190.30 	0.0054375 	23304 
190.80 	0.0054375 	23137 
191.30 	0.0054375 	23304 
191.80 	0.0054375 	23470 
192.30 	0.0054375 	23137 
192.80 	0.0054375 	23304 
193.30 	0.0054375 	23304 
193.80 	0.0054375 	23304 
194.30 	0.0054375 	23304 
194.80 	0.0054375 	23137 
195.30 	0.0054375 	23304 
195.80 	0.0054375 	23304 
196.30 	0.0054375 	23304 
196.80 	0.0054375 	23470 
197.30 	0.0054375 	23304 
197.80 	0.0054375 	23304 
198.30 	0.0054375 	23137 
198.80 	0.0054375 	23304 
199.30 	0.0054375 	23304 
199.80 	0.0054375 	23304 
200.30 	0.0054375 	23304 
200.80 	0.0054375 	23304 
201.30 	0.0054375 	23304 
201.80 	0.0054375 	23304 
202.30 	0.0054375 	23304 
202.80 	0.0054375 	23304 
203.30 	0.0054375 	23304 
203.80 	0.0054375 	23304 
204.30 	0.0054375 	23470 
204.80 	0.0054375 	23304 
205.30 	0.0054375 	23137 
205.80 	0.0054375 	23304 
206.30 	0.0054375 	23304 
206.80 	0.0054375 	23304 
207.30 	0.0054375 	23304 
207.80 	0.0054375 	23137 
208.30 	0.0054375 	23137 
208.80 	0.0054375 	23304 
209.30 	0.0054375 	23304 
209.80 	0.0054375 	23304 
210.30 	0.0054375 	23304 
210.80 	0.0054375 	23137 
211.30 	0.0054375 	23137 
211.80 	0.0054375 	23304 
212.30 	0.0054375 	23470 
212.80 	0.0054375 	23304 
213.30 	0.0054375 	23137 
213.80 	0.0053309 	23304 
214.30 	0.0053309 	23304 
214.80 	0.0054375 	23470 
215.30 	0.0054375 	23304 
215.80 	0.0054375 	23304 
216.30 	0.0054375 	23137 
216.80 	0.0053309 	23304 
217.30 	0.0054375 	23304 
217.80 	0.0054375 	23470 
218.30 	0.0054375 	23470 
218.80 	0.0054375 	23137 
219.30 	0.0054375 	23304 
219.80 	0.0054375 	23137 
220.30 	0.0054375 	23470 
220.80 	0.0054375 	23304 
221.30 	0.0054375 	23304 
221.80 	0.0054375 	23137 
222.30 	0.0054375 	23304 
222.80 	0.0054375 	23470 
223.30 	0.0054375 	23304 
223.80 	0.0054375 	23304 
224.30 	0.0053309 	23137 
224.80 	0.0054375 	23137 
225.30 	0.0054375 	23470 
225.80 	0.0054375 	23304 
226.30 	0.0054375 	23304 
226.80 	0.0054375 	23304 
227.30 	0.0054375 	23470 
227.80 	0.0054375 	23470 
228.30 	0.0054375 	23304 
228.80 	0.0054375 	23304 
229.30 	0.0054375 	23304 
229.80 	0.0054375 	23304 
230.30 	0.0054375 	23304 
230.80 	0.0054375 	23304 
231.30 	0.0054375 	23470 
231.80 	0.0054375 	23304 
232.30 	0.0054375 	23304 
232.80 	0.0054375 	23304 
233.30 	0.0054375 	23304 
233.80 	0.0054375 	23304 
234.30 	0.0054375 	23304 
234.80 	0.0054375 	23304 
235.30 	0.0054375 	23304 
235.80 	0.0054375 	23304 
236.30 	0.0053309 	23304 
236.80 	0.0053309 	23304 
237.30 	0.0054375 	23137 
237.80 	0.0054375 	23304 
238.30 	0.0054375 	23304 
238.80 	0.0054375 	23304 
239.30 	0.0054375 	23304 
239.80 	0.0053309 	23304 
240.30 	0.0054375 	23304 
240.80 	0.0053309 	23304 
241.30 	0.0054375 	23304 
241.80 	0.0054375 	23304 
242.30 	0.0053309 	23304 
242.80 	0.0053309 	23304 
243.30 	0.0054375 	23137 
243.80 	0.0054375 	23304 
244.30 	0.0054375 	23304 
244.80 	0.0054375 	23304 
245.30 	0.0053309 	23137 
245.80 	0.0054375 	23304 
246.30 	0.0053309 	23470 
246.80 	0.0054375 	23304 
247.30 	0.0053309 	22971 
247.80 	0.0053309 	22638 
248.30 	0.0052243 	22139 
248.80 	0.0051177 	21806 
249.27 	0.0050111 	21140 
249.77 	0.0047978 	20474 
250.27 	0.0046912 	19975 
250.77 	0.0044780 	19475 
251.27 	0.0043713 	18976 
251.77 	0.0042647 	18310 
252.27 	0.0041581 	17977 
252.75 	0.0040515 	17312 
253.25 	0.0039449 	16979 
253.75 	0.0038383 	16646 
254.25 	0.0037316 	16313 
254.75 	0.0036250 	16146 
255.03 	0.0036250 	15480 
255.48 	0.0033052 	14815 
255.83 	0.0031985 	14149 
256.33 	0.0029853 	13649 
256.83 	0.0027721 	13150 
257.33 	0.0027721 	12651 
257.75 	0.0025588 	11985 
258.25 	0.0024522 	11652 
258.73 	0.0023456 	10986 
259.23 	0.0021324 	10653 
259.73 	0.0020257 	10154 
260.20 	0.0019191 	9488.0 
260.70 	0.0018125 	8988.7 
261.20 	0.0017059 	8655.8 
261.63 	0.0014927 	7989.9 
262.13 	0.0013860 	7657.0 
262.63 	0.0012794 	7157.6 
263.13 	0.0011728 	6658.3 
263.57 	0.0010662 	5992.4 
264.07 	0.00095956 	5493.1 
264.57 	0.00085294 	5160.2 
265.07 	0.00074633 	4827.2 
265.53 	0.00053309 	4161.4 
266.03 	0.00053309 	3828.5 
266.53 	0.00031985 	3495.6 
267.03 	0.00031985 	3162.7 
267.52 	0.00010662 	2496.9 
268.02 	0.00010662 	2496.9 
268.52 	0.00010662 	2163.9 
269.02 	0.00000 	2163.9 
269.52 	0.00000 	2163.9 
270.02 	0.00000 	1997.5 
270.52 	0.00000 	1831.0 
271.02 	0.00000 	1997.5 
271.52 	0.00000 	1831.0 
272.02 	-0.0001068 	1831.0 
272.52 	0.00000 	1831.0 
273.02 	0.00000 	1664.6 
273.52 	0.00000 	1831.0 
274.02 	-0.0001068 	1831.0 
274.52 	0.00000 	1664.6 
275.02 	-0.0001068 	1664.6 
275.52 	-0.0001068 	1664.6 
276.02 	0.00000 	1664.6 
276.52 	-0.0001068 	1664.6 
277.02 	0.00000 	1664.6 
277.52 	0.00000 	1498.1 
278.02 	-0.0001068 	1664.6 
278.52 	-0.0001068 	1498.1 
279.02 	-0.0001068 	1498.1 
279.52 	-0.0001068 	1331.7 
280.02 	-0.0001068 	1498.1 
280.52 	-0.0001068 	1331.7 
281.02 	-0.0001068 	1331.7 
281.52 	-0.0002136 	1331.7 
282.02 	-0.0002136 	1165.2 
282.52 	-0.0002136 	1331.7 
283.02 	-0.0002136 	1331.7 
283.52 	-0.0001068 	1165.2 
284.02 	-0.0001068 	1165.2 
284.52 	-0.0002136 	1165.2 
285.02 	-0.0002136 	1165.2 
285.52 	-0.0002136 	1165.2 
286.02 	-0.0002136 	1165.2 
286.52 	-0.0002136 	1165.2 
287.02 	-0.0002136 	1165.2 
287.52 	-0.0002136 	1165.2 
288.02 	-0.0001068 	1165.2 
288.52 	-0.0002136 	1165.2 
289.02 	-0.0002136 	1165.2 
289.52 	-0.0002136 	1165.2 
290.02 	-0.0002136 	1165.2 
290.52 	-0.0002136 	1165.2 
291.02 	-0.0002136 	1165.2 
291.52 	-0.0002136 	1165.2 
292.02 	-0.0002136 	1165.2 
292.52 	-0.0001068 	1331.7 
293.02 	-0.0001068 	1165.2 
293.52 	-0.0002136 	1165.2 
294.02 	-0.0001068 	1165.2 
294.52 	-0.0002136 	1165.2 
295.02 	-0.0002136 	1165.2 
295.52 	-0.0002136 	1165.2 
296.02 	-0.0002136 	1165.2 
296.52 	-0.0002136 	1165.2 
297.02 	-0.0001068 	1331.7 
297.52 	-0.0002136 	1165.2 
298.02 	-0.0002136 	1165.2 
298.52 	-0.0001068 	1165.2 
299.02 	-0.0001068 	1165.2 
299.52 	-0.0001068 	1165.2 
300.02 	-0.0002136 	1165.2 
300.52 	-0.0002136 	1165.2 
301.02 	-0.0002136 	1331.7 
301.52 	-0.0002136 	1165.2 
302.02 	-0.0002136 	1165.2 
302.52 	-0.0002136 	1165.2 
303.02 	-0.0002136 	1165.2 
303.52 	-0.0002136 	1165.2 
304.02 	-0.0002136 	1165.2 
304.52 	-0.0002136 	1165.2 
305.02 	-0.0002136 	1165.2 
305.52 	-0.0002136 	1165.2 
306.02 	-0.0002136 	1331.7 
306.52 	-0.0001068 	1331.7 
307.02 	-0.0002136 	1165.2 
307.52 	-0.0001068 	1165.2 
308.02 	-0.0002136 	1165.2 
308.52 	-0.0002136 	1331.7 
309.02 	-0.0002136 	1165.2 
309.52 	-0.0001068 	1165.2 
310.02 	-0.0002136 	1165.2 
310.52 	-0.0002136 	1165.2 
311.02 	-0.0002136 	998.74 
311.52 	-0.0002136 	1165.2 
312.02 	-0.0001068 	1165.2 
312.52 	-0.0002136 	1165.2 
313.02 	-0.0002136 	998.74 
313.52 	-0.0002136 	1165.2 
314.02 	-0.0002136 	1165.2 
314.52 	-0.0002136 	1331.7 
315.02 	-0.0002136 	1165.2 
315.52 	-0.0002136 	1165.2 
316.02 	-0.0002136 	1165.2 
316.52 	-0.0002136 	1165.2 
317.02 	-0.0002136 	1165.2 
317.52 	-0.0002136 	998.74 
318.02 	-0.0001068 	1165.2 
318.52 	-0.0002136 	1165.2 
319.02 	-0.0002136 	1165.2 
319.52 	-0.0002136 	998.74 
320.02 	-0.0002136 	1165.2 
320.52 	-0.0002136 	1165.2 
321.02 	-0.0001068 	1165.2 
321.52 	-0.0002136 	998.74 
322.02 	-0.0002136 	1331.7 
322.52 	-0.0002136 	1165.2 
323.02 	-0.0002136 	1331.7 
323.52 	-0.0002136 	1331.7 
324.02 	-0.0002136 	1165.2 
324.52 	-0.0002136 	1165.2 
325.02 	-0.0002136 	1165.2 
325.52 	-0.0002136 	1165.2 
326.02 	-0.0002136 	1165.2 
326.52 	-0.0002136 	998.74 
327.02 	-0.0002136 	1165.2 
327.52 	-0.0002136 	1165.2 
328.02 	-0.0002136 	1165.2 
328.52 	-0.0002136 	1165.2 
329.02 	-0.0002136 	1165.2 
329.52 	-0.0002136 	1165.2 
330.02 	-0.0003204 	1165.2 
330.52 	-0.0002136 	1165.2 
331.02 	-0.0002136 	1498.1 
331.52 	-0.0002136 	1831.0 
332.02 	-0.0001068 	1997.5 
332.52 	0.00000 	2496.9 
333.02 	0.00021324 	2829.8 
333.52 	0.00021324 	3162.7 
334.02 	0.00021324 	2996.2 
334.52 	0.00031985 	3495.6 
335.00 	0.00042647 	4161.4 
335.50 	0.00053309 	4327.9 
335.82 	0.00063971 	4993.7 
336.17 	0.00085294 	5659.5 
336.62 	0.00095956 	6325.4 
337.00 	0.0011728 	6991.2 
337.50 	0.0013860 	7657.0 
337.85 	0.0014927 	8322.8 
338.33 	0.0017059 	8988.7 
338.83 	0.0018125 	9488.0 
339.20 	0.0020257 	10154 
339.70 	0.0021324 	10653 
340.17 	0.0023456 	11319 
340.67 	0.0024522 	11818 
341.17 	0.0025588 	12318 
341.67 	0.0026655 	12817 
342.15 	0.0027721 	13483 
342.65 	0.0028787 	13816 
343.15 	0.0029853 	14315 
343.65 	0.0030919 	14648 
344.15 	0.0031985 	14815 
344.60 	0.0031985 	15480 
344.98 	0.0034118 	16146 
345.40 	0.0035184 	16812 
345.90 	0.0037316 	17478 
346.40 	0.0039449 	17977 
346.90 	0.0040515 	18477 
347.37 	0.0040515 	19143 
347.87 	0.0042647 	19475 
348.37 	0.0043713 	19808 
348.87 	0.0044780 	20308 
349.37 	0.0045846 	20974 
349.83 	0.0047978 	21639 
350.33 	0.0049044 	22139 
350.82 	0.0050111 	22805 
351.32 	0.0051177 	22971 
351.82 	0.0051177 	23137 
352.32 	0.0052243 	23304 
352.82 	0.0052243 	23304 
353.32 	0.0052243 	23304 
353.82 	0.0052243 	23304 
354.32 	0.0052243 	23304 
354.82 	0.0052243 	23304 
355.32 	0.0052243 	23304 
355.82 	0.0052243 	23304 
356.32 	0.0052243 	23470 
356.82 	0.0052243 	23304 
357.32 	0.0052243 	23304 
357.82 	0.0052243 	23304 
358.32 	0.0052243 	23470 
358.82 	0.0052243 	23304 
359.32 	0.0052243 	23304 
359.82 	0.0052243 	23470 
360.32 	0.0052243 	23470 
360.82 	0.0052243 	23304 
361.32 	0.0052243 	23304 
361.82 	0.0052243 	23304 
362.32 	0.0052243 	23470 
362.82 	0.0052243 	23304 
363.32 	0.0052243 	23304 
363.82 	0.0052243 	23304 
364.32 	0.0052243 	23304 
364.82 	0.0052243 	23304 
365.32 	0.0052243 	23304 
365.82 	0.0052243 	23304 
366.32 	0.0052243 	23304 
366.82 	0.0052243 	23304 
367.32 	0.0052243 	23304 
367.82 	0.0052243 	23304 
368.32 	0.0052243 	23304 
368.82 	0.0052243 	23304 
369.32 	0.0052243 	23304 
369.82 	0.0052243 	23304 
370.32 	0.0052243 	23304 
370.82 	0.0052243 	23304 
371.32 	0.0052243 	23304 
371.82 	0.0052243 	23304 
372.32 	0.0052243 	23137 
372.82 	0.0052243 	23137 
373.32 	0.0052243 	23304 
373.82 	0.0052243 	23304 
374.32 	0.0052243 	23304 
374.82 	0.0052243 	23304 
375.32 	0.0052243 	23304 
375.82 	0.0052243 	23137 
376.32 	0.0052243 	23304 
376.82 	0.0052243 	23304 
377.32 	0.0052243 	23470 
377.82 	0.0052243 	23304 
378.32 	0.0052243 	23304 
378.82 	0.0052243 	23304 
379.32 	0.0052243 	23304 
379.82 	0.0052243 	23137 
380.32 	0.0052243 	23304 
380.82 	0.0052243 	23304 
381.32 	0.0052243 	23304 
381.82 	0.0052243 	23304 
382.32 	0.0052243 	23304 
382.82 	0.0052243 	23304 
383.32 	0.0052243 	23304 
383.82 	0.0052243 	23304 
384.32 	0.0051177 	23304 
384.82 	0.0052243 	23304 
385.32 	0.0052243 	23304 
385.82 	0.0052243 	23470 
386.32 	0.0052243 	23304 
386.82 	0.0051177 	23137 
387.32 	0.0052243 	23137 
387.82 	0.0051177 	23304 
388.32 	0.0052243 	23470 
388.82 	0.0051177 	23304 
389.32 	0.0051177 	23137 
389.82 	0.0052243 	23304 
390.32 	0.0052243 	23304 
390.82 	0.0051177 	23304 
391.32 	0.0052243 	23304 
391.82 	0.0052243 	23304 
392.32 	0.0052243 	23304 
392.82 	0.0051177 	23304 
393.32 	0.0051177 	23304 
393.82 	0.0051177 	23304 
394.32 	0.0052243 	23304 
394.82 	0.0051177 	23304 
395.32 	0.0052243 	23304 
395.82 	0.0052243 	23470 
396.32 	0.0051177 	23304 
396.82 	0.0052243 	23137 
397.32 	0.0051177 	23137 
397.82 	0.0052243 	23304 
398.32 	0.0052243 	23470 
398.82 	0.0052243 	23470 
399.32 	0.0052243 	23304 
399.82 	0.0051177 	23137 
400.32 	0.0051177 	23137 
400.82 	0.0052243 	23470 
401.32 	0.0051177 	23304 
401.82 	0.0052243 	23304 
402.32 	0.0051177 	23304 
402.82 	0.0051177 	23137 
403.32 	0.0051177 	23470 
403.82 	0.0051177 	23470 
404.32 	0.0052243 	23304 
404.82 	0.0051177 	23137 
405.32 	0.0052243 	23304 
405.82 	0.0052243 	23304 
406.32 	0.0052243 	23470 
406.82 	0.0052243 	23304 
407.32 	0.0051177 	23304 
407.82 	0.0052243 	23137 
408.32 	0.0051177 	23304 
408.82 	0.0051177 	23304 
409.32 	0.0052243 	23304 
409.82 	0.0051177 	23304 
410.32 	0.0051177 	23137 
410.82 	0.0051177 	23304 
411.32 	0.0051177 	23304 
411.82 	0.0051177 	22971 
412.32 	0.0050111 	22638 
412.82 	0.0050111 	22139 
413.32 	0.0047978 	21639 
413.82 	0.0046912 	21140 
414.22 	0.0045846 	20474 
414.72 	0.0044780 	19975 
415.22 	0.0042647 	19475 
415.72 	0.0041581 	18810 
416.22 	0.0040515 	18477 
416.70 	0.0038383 	17811 
417.20 	0.0037316 	17478 
417.70 	0.0036250 	17145 
418.20 	0.0035184 	16646 
418.70 	0.0034118 	16313 
419.20 	0.0034118 	15980 
419.60 	0.0031985 	15314 
419.98 	0.0030919 	14648 
420.43 	0.0028787 	13982 
420.93 	0.0026655 	13483 
421.43 	0.0025588 	12984 
421.93 	0.0024522 	12318 
422.43 	0.0023456 	11985 
422.88 	0.0022390 	11319 
423.38 	0.0020257 	10986 
423.88 	0.0019191 	10487 
424.25 	0.0018125 	9820.9 
424.75 	0.0017059 	9488.0 
425.25 	0.0014927 	8822.2 
425.75 	0.0013860 	8489.3 
426.22 	0.0012794 	7823.5 
426.72 	0.0010662 	7490.6 
427.22 	0.0010662 	6991.2 
427.63 	0.00085294 	6325.4 
428.13 	0.00074633 	5992.4 
428.63 	0.00063971 	5326.6 
429.13 	0.00053309 	4993.7 
429.63 	0.00042647 	4660.8 
430.07 	0.00031985 	3995.0 
430.57 	0.00021324 	3828.5 
431.07 	0.00010662 	3329.1 
431.57 	0.00000 	3162.7 
431.97 	-0.0001068 	2496.9 
432.47 	-0.0002136 	2330.4 
432.97 	-0.0002136 	2163.9 
433.47 	-0.0002136 	2330.4 
433.97 	-0.0002136 	2163.9 
434.47 	-0.0002136 	1997.5 
434.97 	-0.0002136 	1997.5 
435.47 	-0.0002136 	1997.5 
435.97 	-0.0003204 	1831.0 
436.47 	-0.0003204 	1831.0 
436.97 	-0.0003204 	1831.0 
437.47 	-0.0003204 	1831.0 
437.97 	-0.0003204 	1831.0 
438.47 	-0.0003204 	1831.0 
438.97 	-0.0003204 	1664.6 
439.47 	-0.0003204 	1664.6 
439.97 	-0.0003204 	1664.6 
440.47 	-0.0003204 	1664.6 
440.97 	-0.0003204 	1664.6 
441.47 	-0.0003204 	1498.1 
441.97 	-0.0003204 	1498.1 
442.47 	-0.0003204 	1498.1 
442.97 	-0.0003204 	1331.7 
443.47 	-0.0003204 	1498.1 
443.97 	-0.0003204 	1498.1 
444.47 	-0.0003204 	1331.7 
444.97 	-0.0004273 	1331.7 
445.47 	-0.0003204 	1331.7 
445.97 	-0.0004273 	1331.7 
446.47 	-0.0004273 	1331.7 
446.97 	-0.0003204 	1165.2 
447.47 	-0.0003204 	1331.7 
447.97 	-0.0004273 	1165.2 
448.47 	-0.0004273 	1165.2 
448.97 	-0.0003204 	1165.2 
449.47 	-0.0003204 	1165.2 
449.97 	-0.0004273 	1165.2 
450.47 	-0.0003204 	1165.2 
450.97 	-0.0004273 	1165.2 
451.47 	-0.0003204 	1165.2 
451.97 	-0.0003204 	1165.2 
452.47 	-0.0003204 	1165.2 
452.97 	-0.0003204 	1165.2 
453.47 	-0.0003204 	1165.2 
453.97 	-0.0004273 	1165.2 
454.47 	-0.0004273 	1165.2 
454.97 	-0.0003204 	1165.2 
455.47 	-0.0004273 	1165.2 
455.97 	-0.0003204 	1165.2 
456.47 	-0.0004273 	1165.2 
456.97 	-0.0004273 	1165.2 
457.47 	-0.0004273 	1165.2 
457.97 	-0.0004273 	1165.2 
458.47 	-0.0003204 	1165.2 
458.97 	-0.0004273 	1331.7 
459.47 	-0.0004273 	1165.2 
459.97 	-0.0004273 	1165.2 
460.47 	-0.0003204 	1165.2 
460.97 	-0.0004273 	1165.2 
461.47 	-0.0004273 	1165.2 
461.97 	-0.0004273 	1165.2 
462.47 	-0.0004273 	1165.2 
462.97 	-0.0004273 	1165.2 
463.47 	-0.0003204 	1165.2 
463.97 	-0.0003204 	1165.2 
464.47 	-0.0004273 	1165.2 
464.97 	-0.0004273 	1331.7 
465.47 	-0.0003204 	1331.7 
465.97 	-0.0003204 	1165.2 
466.47 	-0.0004273 	1165.2 
466.97 	-0.0004273 	1165.2 
467.47 	-0.0004273 	1165.2 
467.97 	-0.0004273 	1165.2 
468.47 	-0.0004273 	998.74 
468.97 	-0.0004273 	1165.2 
469.47 	-0.0004273 	1165.2 
469.97 	-0.0004273 	1165.2 
470.47 	-0.0004273 	998.74 
470.97 	-0.0004273 	1165.2 
471.47 	-0.0004273 	1165.2 
471.97 	-0.0003204 	998.74 
472.47 	-0.0003204 	1165.2 
472.97 	-0.0004273 	1331.7 
473.47 	-0.0003204 	1331.7 
473.97 	-0.0004273 	1165.2 
474.47 	-0.0004273 	1165.2 
474.97 	-0.0004273 	1331.7 
475.47 	-0.0004273 	1165.2 
475.97 	-0.0004273 	1165.2 
476.47 	-0.0004273 	1165.2 
476.97 	-0.0003204 	1165.2 
477.47 	-0.0004273 	1165.2 
477.97 	-0.0004273 	1165.2 
478.47 	-0.0004273 	1165.2 
478.97 	-0.0004273 	1165.2 
479.47 	-0.0004273 	1165.2 
479.97 	-0.0004273 	1165.2 
480.47 	-0.0004273 	1165.2 
480.97 	-0.0004273 	1165.2 
481.47 	-0.0004273 	1165.2 
481.97 	-0.0004273 	1165.2 
482.47 	-0.0004273 	1165.2 
482.97 	-0.0004273 	1331.7 
483.47 	-0.0004273 	998.74 
483.97 	-0.0004273 	1165.2 
484.47 	-0.0004273 	1165.2 
484.97 	-0.0004273 	1165.2 
485.47 	-0.0004273 	1165.2 
485.97 	-0.0004273 	1165.2 
486.47 	-0.0004273 	1331.7 
486.97 	-0.0004273 	1331.7 
487.47 	-0.0004273 	1165.2 
487.97 	-0.0004273 	1165.2 
488.47 	-0.0004273 	1165.2 
488.97 	-0.0003204 	1331.7 
489.47 	-0.0004273 	1165.2 
489.97 	-0.0004273 	1165.2 
490.47 	-0.0004273 	1165.2 
490.97 	-0.0004273 	1331.7 
491.47 	-0.0004273 	998.74 
491.97 	-0.0004273 	1165.2 
492.47 	-0.0004273 	1165.2 
492.97 	-0.0004273 	1165.2 
493.47 	-0.0004273 	1165.2 
493.97 	-0.0004273 	1165.2 
494.47 	-0.0004273 	1165.2 
494.52 	-0.0004273 	1165.2 
495.02 	-0.0004273 	1331.7 
495.52 	-0.0004273 	1165.2 
496.02 	-0.0004273 	1165.2 
496.52 	-0.0004273 	1165.2 
497.02 	-0.0003204 	1165.2 
497.52 	-0.0004273 	1165.2 
498.02 	-0.0003204 	1165.2 
498.52 	-0.0004273 	1165.2 
499.02 	-0.0004273 	1165.2 
499.52 	-0.0003204 	1165.2 
500.02 	-0.0004273 	1331.7 
500.52 	-0.0004273 	1165.2 
501.02 	-0.0004273 	1165.2 
501.52 	-0.0003204 	1165.2 
502.02 	-0.0004273 	1331.7 
502.52 	-0.0004273 	1165.2 
503.02 	-0.0004273 	1165.2 
503.52 	-0.0004273 	1165.2 
504.02 	-0.0004273 	1165.2 
504.52 	-0.0004273 	1165.2 
505.02 	-0.0004273 	1331.7 
505.52 	-0.0004273 	1165.2 
506.02 	-0.0004273 	1165.2 
506.52 	-0.0004273 	1165.2 
507.02 	-0.0003204 	1165.2 
507.52 	-0.0004273 	1165.2 
508.02 	-0.0004273 	1165.2 
508.52 	-0.0004273 	1165.2 
509.02 	-0.0004273 	1165.2 
509.52 	-0.0004273 	1165.2 
510.02 	-0.0004273 	998.74 
510.52 	-0.0004273 	1165.2 
511.02 	-0.0004273 	1165.2 
511.52 	-0.0004273 	1165.2 
512.02 	-0.0004273 	998.74 
512.52 	-0.0004273 	1165.2 
513.02 	-0.0004273 	1331.7 
513.52 	-0.0004273 	1165.2 
514.02 	-0.0004273 	1165.2 
514.52 	-0.0004273 	1165.2 
515.02 	-0.0004273 	1165.2 
515.52 	-0.0004273 	1331.7 
516.02 	-0.0004273 	1165.2 
516.52 	-0.0004273 	1165.2 
517.02 	-0.0004273 	1165.2 
517.52 	-0.0004273 	1165.2 
518.02 	-0.0004273 	998.74 
518.52 	-0.0004273 	998.74 
519.02 	-0.0004273 	1165.2 
519.52 	-0.0004273 	1331.7 
520.02 	-0.0004273 	1165.2 
520.52 	-0.0003204 	1165.2 
521.02 	-0.0003204 	1165.2 
521.52 	-0.0004273 	1165.2 
522.02 	-0.0004273 	1165.2 
522.52 	-0.0004273 	1165.2 
523.02 	-0.0004273 	1165.2 
523.52 	-0.0004273 	1165.2 
524.02 	-0.0004273 	1165.2 
524.52 	-0.0004273 	998.74 
525.02 	-0.0004273 	998.74 
525.52 	-0.0004273 	1165.2 
526.02 	-0.0004273 	1331.7 
526.52 	-0.0004273 	1331.7 
527.02 	-0.0003204 	1664.6 
527.52 	-0.0002136 	1997.5 
528.02 	-0.0001068 	2496.9 
528.52 	-0.0001068 	2829.8 
529.02 	0.00000 	3162.7 
529.52 	0.00000 	3329.1 
530.02 	0.00010662 	3495.6 
530.52 	0.00021324 	3995.0 
531.02 	0.00031985 	4494.3 
531.50 	0.00053309 	5160.2 
531.88 	0.00063971 	5826.0 
532.33 	0.00085294 	6491.8 
532.83 	0.0010662 	6991.2 
533.10 	0.0012794 	7657.0 
533.45 	0.0012794 	8322.8 
533.93 	0.0015993 	8988.7 
534.43 	0.0017059 	9654.5 
534.93 	0.0018125 	10154 
535.40 	0.0020257 	10820 
535.90 	0.0021324 	11319 
536.38 	0.0022390 	11985 
536.88 	0.0023456 	12318 
537.35 	0.0025588 	12984 
537.85 	0.0026655 	13483 
538.35 	0.0027721 	13816 
538.85 	0.0027721 	14149 
539.35 	0.0028787 	14648 
539.85 	0.0029853 	14815 
540.23 	0.0031985 	15480 
540.57 	0.0033052 	16146 
541.03 	0.0034118 	16812 
541.53 	0.0036250 	17312 
541.95 	0.0037316 	17977 
542.45 	0.0038383 	18477 
542.95 	0.0040515 	18810 
543.35 	0.0040515 	19475 
543.85 	0.0042647 	19808 
544.35 	0.0042647 	20308 
544.85 	0.0044780 	20641 
545.20 	0.0045846 	21306 
545.67 	0.0046912 	21972 
546.17 	0.0047978 	22305 
546.60 	0.0050111 	22971 
547.10 	0.0050111 	23137 
547.60 	0.0051177 	23137 
548.10 	0.0051177 	23304 
548.60 	0.0051177 	23304 
549.10 	0.0051177 	23304 
549.60 	0.0051177 	23304 
550.10 	0.0051177 	23304 
550.60 	0.0051177 	23137 
551.10 	0.0051177 	23304 
551.60 	0.0051177 	23304 
552.10 	0.0051177 	23304 
552.60 	0.0051177 	23304 
553.10 	0.0051177 	23304 
553.60 	0.0051177 	23304 
554.10 	0.0051177 	23137 
554.60 	0.0051177 	23304 
555.10 	0.0051177 	23304 
555.60 	0.0051177 	23304 
556.10 	0.0051177 	23304 
556.60 	0.0051177 	23304 
557.10 	0.0051177 	23304 
557.60 	0.0051177 	23304 
558.10 	0.0051177 	23304 
558.60 	0.0051177 	23304 
559.10 	0.0051177 	23304 
559.60 	0.0051177 	23304 
560.10 	0.0051177 	23304 
560.60 	0.0051177 	23304 
561.10 	0.0051177 	23304 
561.60 	0.0051177 	23304 
562.10 	0.0051177 	23304 
562.60 	0.0051177 	23304 
563.10 	0.0051177 	23304 
563.60 	0.0051177 	23137 
564.10 	0.0051177 	23304 
564.60 	0.0051177 	23304 
565.10 	0.0051177 	23137 
565.60 	0.0050111 	23304 
566.10 	0.0051177 	23304 
566.60 	0.0051177 	23304 
567.10 	0.0051177 	23304 
567.60 	0.0051177 	23304 
568.10 	0.0051177 	23304 
568.60 	0.0051177 	23304 
569.10 	0.0051177 	23304 
569.60 	0.0051177 	23304 
570.10 	0.0051177 	23137 
570.60 	0.0051177 	23304 
571.10 	0.0051177 	23304 
571.60 	0.0051177 	23470 
572.10 	0.0051177 	23304 
572.60 	0.0051177 	23304 
573.10 	0.0051177 	23304 
573.60 	0.0051177 	23304 
574.10 	0.0051177 	23304 
574.60 	0.0051177 	23304 
575.10 	0.0051177 	23137 
575.60 	0.0051177 	23304 
576.10 	0.0051177 	23304 
576.60 	0.0051177 	23470 
577.10 	0.0051177 	23304 
577.60 	0.0051177 	23304 
578.10 	0.0051177 	23304 
578.60 	0.0051177 	23304 
579.10 	0.0051177 	23304 
579.60 	0.0051177 	23304 
580.10 	0.0051177 	23304 
580.60 	0.0051177 	23304 
581.10 	0.0051177 	23304 
581.60 	0.0051177 	23304 
582.10 	0.0051177 	23470 
582.60 	0.0051177 	23470 
583.10 	0.0051177 	23304 
583.60 	0.0051177 	23137 
584.10 	0.0051177 	23137 
584.60 	0.0051177 	23304 
585.10 	0.0051177 	23470 
585.60 	0.0051177 	23470 
586.10 	0.0051177 	23304 
586.60 	0.0051177 	23304 
587.10 	0.0051177 	23304 
587.60 	0.0051177 	23304 
588.10 	0.0051177 	23470 
588.60 	0.0051177 	23304 
589.10 	0.0051177 	23304 
589.60 	0.0051177 	23304 
590.10 	0.0051177 	23304 
590.60 	0.0051177 	23304 
591.10 	0.0051177 	23304 
591.60 	0.0051177 	23304 
592.10 	0.0051177 	23137 
592.60 	0.0051177 	23304 
593.10 	0.0051177 	23470 
593.60 	0.0051177 	23304 
594.10 	0.0051177 	23137 
594.60 	0.0051177 	23137 
595.10 	0.0051177 	23304 
595.60 	0.0051177 	23304 
596.10 	0.0051177 	23304 
596.60 	0.0051177 	23304 
597.10 	0.0051177 	23137 
597.60 	0.0051177 	23137 
598.10 	0.0051177 	23470 
598.60 	0.0051177 	23304 
599.10 	0.0051177 	23304 
599.60 	0.0051177 	23304 
600.10 	0.0051177 	23304 
600.60 	0.0051177 	23304 
601.10 	0.0051177 	23470 
601.60 	0.0051177 	23304 
602.10 	0.0050111 	23304 
602.60 	0.0051177 	23304 
603.10 	0.0050111 	23304 
603.60 	0.0051177 	23470 
604.10 	0.0051177 	23304 
604.60 	0.0051177 	23137 
605.10 	0.0051177 	23304 
605.60 	0.0051177 	23304 
606.10 	0.0050111 	23470 
606.60 	0.0051177 	23304 
606.78 	0.0051177 	23304 
607.28 	0.0051177 	23304 
607.78 	0.0051177 	23137 
608.28 	0.0050111 	23304 
608.78 	0.0050111 	23304 
609.28 	0.0050111 	23304 
609.78 	0.0051177 	23304 
610.28 	0.0050111 	23470 
610.78 	0.0051177 	23304 
611.28 	0.0051177 	23304 
611.78 	0.0050111 	23137 
612.28 	0.0050111 	23137 
612.78 	0.0050111 	23304 
613.28 	0.0051177 	23304 
613.78 	0.0050111 	23304 
614.28 	0.0050111 	23137 
614.78 	0.0050111 	23137 
615.28 	0.0050111 	23304 
615.78 	0.0050111 	23470 
616.28 	0.0050111 	23470 
616.78 	0.0050111 	23304 
617.28 	0.0050111 	23137 
617.78 	0.0050111 	23304 
618.28 	0.0050111 	23304 
618.78 	0.0050111 	23470 
619.28 	0.0050111 	23304 
619.78 	0.0050111 	23304 
620.28 	0.0050111 	23304 
620.78 	0.0050111 	23137 
621.28 	0.0050111 	23304 
621.78 	0.0050111 	23304 
622.28 	0.0050111 	23304 
622.78 	0.0050111 	23304 
623.28 	0.0050111 	23304 
623.78 	0.0050111 	23304 
624.28 	0.0050111 	23137 
624.78 	0.0050111 	23304 
625.28 	0.0050111 	23470 
625.78 	0.0050111 	23304 
626.28 	0.0050111 	23304 
626.78 	0.0049044 	23304 
627.28 	0.0050111 	23304 
627.78 	0.0049044 	23304 
628.28 	0.0050111 	23304 
628.78 	0.0050111 	23304 
629.28 	0.0050111 	23304 
629.78 	0.0050111 	23304 
630.28 	0.0049044 	23304 
630.78 	0.0050111 	23304 
631.28 	0.0050111 	23470 
631.78 	0.0050111 	23304 
632.28 	0.0050111 	23304 
632.78 	0.0050111 	23304 
633.28 	0.0050111 	23304 
633.78 	0.0050111 	23470 
634.28 	0.0050111 	23470 
634.78 	0.0050111 	23137 
635.28 	0.0049044 	23304 
635.78 	0.0050111 	23304 
636.28 	0.0049044 	23304 
636.78 	0.0050111 	23304 
637.28 	0.0050111 	23137 
637.78 	0.0050111 	23304 
638.28 	0.0050111 	23470 
638.78 	0.0050111 	23470 
639.28 	0.0050111 	23304 
639.78 	0.0050111 	23304 
640.28 	0.0050111 	23304 
640.78 	0.0050111 	23304 
641.28 	0.0050111 	23304 
641.78 	0.0050111 	23304 
642.28 	0.0050111 	23304 
642.78 	0.0050111 	23304 
643.28 	0.0050111 	23470 
643.78 	0.0050111 	23304 
644.28 	0.0050111 	23304 
644.78 	0.0050111 	23137 
645.28 	0.0050111 	23304 
645.78 	0.0050111 	23470 
646.28 	0.0050111 	23470 
646.78 	0.0050111 	23304 
647.28 	0.0050111 	23137 
647.78 	0.0050111 	23137 
648.28 	0.0050111 	23304 
648.78 	0.0050111 	23470 
649.28 	0.0050111 	23304 
649.78 	0.0050111 	23304 
650.28 	0.0050111 	23304 
650.78 	0.0050111 	23304 
651.28 	0.0050111 	23304 
651.78 	0.0050111 	23304 
652.28 	0.0050111 	23304 
652.78 	0.0050111 	23304 
653.28 	0.0050111 	23304 
653.78 	0.0050111 	23304 
654.28 	0.0050111 	23304 
654.78 	0.0050111 	23304 
655.28 	0.0050111 	23304 
655.78 	0.0050111 	23470 
656.28 	0.0050111 	23470 
656.78 	0.0050111 	23304 
657.28 	0.0050111 	23137 
657.78 	0.0050111 	23137 
658.28 	0.0050111 	23304 
658.78 	0.0050111 	23470 
659.28 	0.0050111 	23304 
659.78 	0.0050111 	23304 
660.28 	0.0050111 	23137 
660.78 	0.0050111 	23304 
661.28 	0.0050111 	23470 
661.78 	0.0050111 	23470 
662.28 	0.0050111 	23304 
662.78 	0.0050111 	23304 
663.28 	0.0050111 	23137 
663.78 	0.0050111 	23304 
664.28 	0.0050111 	23304 
664.78 	0.0050111 	23304 
665.28 	0.0050111 	23304 
665.78 	0.0050111 	23470 
666.28 	0.0050111 	23304 
666.78 	0.0050111 	23137 
667.28 	0.0050111 	23304 
667.78 	0.0050111 	23304 
668.28 	0.0050111 	23304 
668.78 	0.0050111 	23470 
669.28 	0.0050111 	23470 
669.78 	0.0050111 	23304 
670.28 	0.0050111 	23304 
670.78 	0.0050111 	23137 
671.28 	0.0050111 	23304 
671.78 	0.0050111 	23470 
672.28 	0.0050111 	23304 
672.78 	0.0050111 	23304 
673.28 	0.0050111 	23304 
673.78 	0.0050111 	23304 
674.28 	0.0050111 	23304 
674.78 	0.0050111 	23304 
675.28 	0.0050111 	23304 
675.78 	0.0050111 	23304 
676.28 	0.0050111 	23304 
676.78 	0.0050111 	23470 
677.28 	0.0050111 	23304 
677.78 	0.0050111 	23304 
678.28 	0.0050111 	23304 
678.78 	0.0050111 	23304 
679.28 	0.0050111 	23304 
679.78 	0.0050111 	23304 
680.28 	0.0050111 	23304 
680.78 	0.0050111 	23304 
681.28 	0.0050111 	23304 
681.78 	0.0050111 	23304 
682.28 	0.0050111 	23304 
682.78 	0.0050111 	23304 
683.28 	0.0050111 	23304 
683.78 	0.0050111 	23304 
684.28 	0.0050111 	23470 
684.78 	0.0050111 	23304 
685.28 	0.0050111 	23304 
685.78 	0.0050111 	23304 
686.28 	0.0050111 	23304 
686.78 	0.0050111 	23304 
687.28 	0.0050111 	23304 
687.78 	0.0050111 	23304 
688.28 	0.0050111 	23304 
688.78 	0.0050111 	23304 
689.28 	0.0050111 	23304 
689.78 	0.0050111 	23304 
690.28 	0.0050111 	23304 
690.78 	0.0050111 	23470 
691.28 	0.0050111 	23304 
691.78 	0.0050111 	23304 
692.28 	0.0050111 	23304 
692.78 	0.0050111 	23304 
693.28 	0.0050111 	23304 
693.78 	0.0050111 	23304 
694.28 	0.0050111 	23304 
694.78 	0.0050111 	23304 
695.28 	0.0050111 	23304 
695.78 	0.0050111 	23304 
696.28 	0.0050111 	23304 
696.78 	0.0050111 	23304 
697.28 	0.0050111 	23304 
697.78 	0.0050111 	23304 
698.28 	0.0050111 	23137 
698.78 	0.0050111 	23637 
699.28 	0.0050111 	24136 
699.78 	0.0050111 	24636 
700.28 	0.0050111 	25135 
700.78 	0.0050111 	25634 
701.28 	0.0050111 	26134 
701.78 	0.0050111 	26633 
702.28 	0.0050111 	27132 
702.78 	0.0050111 	27299 
703.28 	0.0050111 	27798 
703.77 	0.0050111 	28464 
704.27 	0.0050111 	28963 
704.77 	0.0050111 	29463 
705.27 	0.0050111 	30129 
705.77 	0.0050111 	30628 
706.27 	0.0050111 	30961 
706.70 	0.0050111 	31627 
707.20 	0.0050111 	32126 
707.70 	0.0050111 	32626 
707.98 	0.0050111 	33291 
708.48 	0.0050111 	33957 
708.98 	0.0050111 	34290 
709.42 	0.0050111 	34956 
709.92 	0.0050111 	35289 
710.35 	0.0050111 	35955 
710.85 	0.0050111 	36454 
711.35 	0.0050111 	36953 
711.85 	0.0050111 	37286 
712.15 	0.0050111 	37952 
712.65 	0.0050111 	38285 
713.13 	0.0050111 	38951 
713.63 	0.0050111 	39284 
714.08 	0.0050111 	39950 
714.58 	0.0050111 	40449 
715.08 	0.0050111 	40948 
715.58 	0.0050111 	41448 
716.08 	0.0050111 	41947 
716.57 	0.0050111 	42613 
717.07 	0.0050111 	42946 
717.52 	0.0050111 	43612 
718.02 	0.0050111 	44111 
718.52 	0.0050111 	44610 
719.02 	0.0050111 	45110 
719.52 	0.0050111 	45776 
720.02 	0.0050111 	46275 
720.52 	0.0050111 	46774 
721.02 	0.0050111 	47274 
721.52 	0.0050111 	47940 
722.02 	0.0050111 	48272 
722.50 	0.0050111 	48938 
723.00 	0.0050111 	49438 
723.50 	0.0050111 	49937 
724.00 	0.0050111 	50436 
724.47 	0.0050111 	51102 
724.97 	0.0050111 	51435 
725.40 	0.0050111 	52101 
725.90 	0.0050111 	52434 
726.37 	0.0050111 	53100 
726.87 	0.0050111 	53433 
727.28 	0.0050111 	54098 
727.78 	0.0050111 	54598 
728.28 	0.0050111 	55097 
728.78 	0.0050111 	55597 
729.28 	0.0050111 	56096 
729.78 	0.0050111 	56595 
730.28 	0.0050111 	57261 
730.78 	0.0050111 	57761 
731.28 	0.0050111 	58260 
731.78 	0.0050111 	58759 
732.28 	0.0050111 	59259 
732.75 	0.0050111 	59924 
733.25 	0.0050111 	60257 
733.73 	0.0050111 	60923 
734.23 	0.0050111 	61423 
734.73 	0.0050111 	61922 
735.23 	0.0050111 	62421 
735.70 	0.0050111 	63087 
736.20 	0.0050111 	63420 
736.68 	0.0050111 	64086 
737.18 	0.0050111 	64419 
737.58 	0.0050111 	65085 
738.08 	0.0050111 	65418 
738.58 	0.0050111 	65917 
739.00 	0.0050111 	66583 
739.50 	0.0050111 	66916 
739.98 	0.0050111 	67581 
740.48 	0.0050111 	68081 
740.98 	0.0050111 	68580 
741.48 	0.0050111 	69080 
741.95 	0.0050111 	69745 
742.45 	0.0050111 	70245 
742.95 	0.0050111 	70744 
743.45 	0.0050111 	71244 
743.95 	0.0050111 	71743 
744.45 	0.0050111 	72242 
744.88 	0.0050111 	72908 
745.38 	0.0050111 	73241 
745.87 	0.0050111 	73907 
746.37 	0.0050111 	74406 
746.87 	0.0050111 	74906 
747.33 	0.0050111 	75571 
747.83 	0.0050111 	75904 
748.33 	0.0050111 	76404 
748.80 	0.0050111 	77069 
749.30 	0.0050111 	77569 
749.80 	0.0050111 	78068 
750.30 	0.0050111 	78568 
750.80 	0.0050111 	79067 
751.30 	0.0050111 	79566 
751.78 	0.0050111 	80232 
752.28 	0.0050111 	80732 
752.78 	0.0050111 	81064 
753.22 	0.0050111 	81730 
753.72 	0.0050111 	82230 
754.22 	0.0050111 	82563 
754.63 	0.0050111 	83228 
755.13 	0.0050111 	83728 
755.63 	0.0050111 	84227 
756.13 	0.0050111 	84727 
756.63 	0.0050111 	85226 
757.10 	0.0050111 	85892 
757.60 	0.0050111 	86391 
758.10 	0.0050111 	86890 
758.60 	0.0050111 	87390 
759.10 	0.0050111 	87889 
759.60 	0.0050111 	88555 
760.10 	0.0050111 	89054 
760.60 	0.0050111 	89554 
761.10 	0.0050111 	90053 
761.55 	0.0050111 	90719 
762.05 	0.0050111 	91052 
762.55 	0.0050111 	91551 
763.05 	0.0050111 	92217 
763.55 	0.0050111 	92716 
764.05 	0.0050111 	93216 
764.55 	0.0050111 	93715 
765.05 	0.0050111 	94381 
765.55 	0.0050111 	94714 
765.97 	0.0050111 	95380 
766.47 	0.0050111 	95713 
766.97 	0.0050111 	96378 
767.47 	0.0050111 	96878 
767.97 	0.0050111 	97377 
768.47 	0.0050111 	97877 
768.95 	0.0050111 	98542 
769.45 	0.0050111 	99042 
769.95 	0.0050111 	99541 
770.45 	0.0050111 	100040 
770.95 	0.0050111 	100540 
771.45 	0.0050111 	101040 
771.95 	0.0050111 	101710 
772.45 	0.0050111 	102200 
772.95 	0.0050111 	102700 
773.45 	0.0050111 	103200 
773.95 	0.0050111 	103700 
774.45 	0.0050111 	104370 
774.95 	0.0050111 	104870 
775.43 	0.0050111 	105530 
775.93 	0.0050111 	105870 
776.43 	0.0050111 	106370 
776.93 	0.0050111 	107030 
777.43 	0.0050111 	107530 
777.93 	0.0050111 	108030 
778.43 	0.0050111 	108530 
778.92 	0.0050111 	109200 
779.42 	0.0050111 	109530 
779.88 	0.0050111 	110190 
780.38 	0.0050111 	110690 
780.88 	0.0050111 	111190 
781.38 	0.0050111 	111690 
781.88 	0.0050111 	112190 
782.38 	0.0050111 	112690 
782.87 	0.0050111 	113360 
783.37 	0.0050111 	113860 
783.87 	0.0050111 	114360 
784.37 	0.0050111 	114860 
784.87 	0.0050111 	115350 
785.35 	0.0050111 	116020 
785.85 	0.0050111 	116350 
786.30 	0.0050111 	117020 
786.80 	0.0050111 	117520 
787.30 	0.0050111 	118020 
787.80 	0.0050111 	118680 
788.30 	0.0050111 	119020 
788.75 	0.0050111 	119680 
789.25 	0.0050111 	120020 
789.70 	0.0050111 	120680 
790.20 	0.0050111 	121180 
790.70 	0.0050111 	121680 
791.20 	0.0050111 	122180 
791.70 	0.0050111 	122680 
792.20 	0.0050111 	123180 
792.70 	0.0050111 	123680 
793.17 	0.0050111 	124340 
793.67 	0.0050111 	124840 
794.17 	0.0050111 	125340 
794.67 	0.0050111 	125840 
795.17 	0.0050111 	126510 
795.67 	0.0050111 	127010 
796.17 	0.0050111 	127510 
796.67 	0.0050111 	128010 
797.17 	0.0050111 	128500 
797.67 	0.0050111 	129170 
798.17 	0.0050111 	129670 
798.67 	0.0050111 	130170 
799.17 	0.0050111 	130670 
799.67 	0.0050111 	131170 
800.17 	0.0050111 	131670 
800.67 	0.0050111 	132170 
801.17 	0.0050111 	132670 
801.67 	0.0050111 	133330 
802.17 	0.0050111 	133830 
802.67 	0.0050111 	134330 
803.17 	0.0050111 	134830 
803.67 	0.0050111 	135500 
804.17 	0.0050111 	136000 
804.67 	0.0050111 	136490 
805.17 	0.0050111 	136990 
805.67 	0.0050111 	137660 
806.17 	0.0050111 	138160 
806.67 	0.0050111 	138660 
807.17 	0.0050111 	139160 
807.67 	0.0050111 	139660 
808.17 	0.0050111 	140320 
808.67 	0.0050111 	140820 
809.17 	0.0050111 	141320 
809.67 	0.0050111 	141820 
810.17 	0.0050111 	142320 
810.67 	0.0050111 	142820 
811.17 	0.0050111 	143490 
811.67 	0.0050111 	143990 
812.17 	0.0050111 	144480 
812.67 	0.0050111 	144980 
813.17 	0.0050111 	145650 
813.67 	0.0050111 	146150 
814.17 	0.0050111 	146650 
814.67 	0.0050111 	147150 
815.17 	0.0050111 	147650 
815.67 	0.0050111 	148310 
816.17 	0.0050111 	148810 
816.67 	0.0050111 	149310 
817.17 	0.0050111 	149810 
817.67 	0.0050111 	150310 
818.17 	0.0050111 	150980 
818.67 	0.0050111 	151310 
819.17 	0.0050111 	151980 
819.67 	0.0050111 	152470 
820.17 	0.0050111 	152970 
820.67 	0.0050111 	153470 
821.17 	0.0050111 	154140 
821.67 	0.0050111 	154640 
822.17 	0.0050111 	155140 
822.67 	0.0050111 	155640 
823.17 	0.0050111 	156300 
823.67 	0.0050111 	156800 
824.17 	0.0050111 	157300 
824.67 	0.0050111 	157800 
825.17 	0.0050111 	158300 
825.67 	0.0050111 	158800 
826.17 	0.0050111 	159470 
826.67 	0.0050111 	159960 
827.17 	0.0050111 	160460 
827.67 	0.0050111 	160960 
828.17 	0.0050111 	161630 
828.67 	0.0050111 	162130 
829.17 	0.0050111 	162630 
829.67 	0.0050111 	163130 
830.17 	0.0050111 	163790 
830.67 	0.0050111 	164130 
831.17 	0.0050111 	164790 
831.67 	0.0050111 	165290 
832.17 	0.0050111 	165790 
832.67 	0.0050111 	166460 
833.17 	0.0050111 	166790 
833.67 	0.0050111 	167460 
834.17 	0.0050111 	167950 
834.67 	0.0050111 	168450 
835.17 	0.0050111 	168950 
835.67 	0.0050111 	169450 
836.17 	0.0050111 	169950 
836.67 	0.0050111 	170620 
837.17 	0.0050111 	171120 
837.67 	0.0050111 	171620 
838.17 	0.0050111 	172120 
838.67 	0.0050111 	172780 
839.17 	0.0050111 	173280 
839.67 	0.0050111 	173780 
840.17 	0.0050111 	174280 
840.67 	0.0050111 	174780 
841.17 	0.0050111 	175450 
841.67 	0.0050111 	175940 
842.17 	0.0050111 	176440 
842.67 	0.0050111 	176940 
843.17 	0.0050111 	177610 
843.67 	0.0050111 	178110 
844.17 	0.0050111 	178610 
844.67 	0.0050111 	179110 
845.17 	0.0050111 	179610 
845.67 	0.0050111 	180110 
846.17 	0.0050111 	180770 
846.67 	0.0050111 	181270 
847.17 	0.0050111 	181940 
847.67 	0.0050111 	182440 
848.17 	0.0050111 	182770 
848.67 	0.0050111 	183440 
849.17 	0.0050111 	183770 
849.67 	0.0050111 	184430 
850.17 	0.0050111 	185100 
850.67 	0.0050111 	185600 
851.17 	0.0050111 	186100 
851.67 	0.0050111 	186600 
852.17 	0.0050111 	187100 
852.67 	0.0050111 	187760 
853.17 	0.0050111 	188100 
853.67 	0.0050111 	188760 
854.17 	0.0050111 	189260 
854.67 	0.0050111 	189760 
855.17 	0.0050111 	190260 
855.67 	0.0050111 	190760 
856.17 	0.0050111 	191430 
856.67 	0.0050111 	191920 
857.17 	0.0050111 	192420 
857.67 	0.0050111 	192920 
858.17 	0.0050111 	193420 
858.67 	0.0050111 	194090 
859.17 	0.0050111 	194590 
859.67 	0.0050111 	195090 
860.17 	0.0050111 	195590 
860.67 	0.0050111 	196250 
861.17 	0.0050111 	196750 
861.67 	0.0050111 	197250 
862.17 	0.0050111 	197750 
862.67 	0.0050111 	198250 
863.17 	0.0050111 	198750 
863.67 	0.0050111 	199420 
864.17 	0.0050111 	199910 
864.67 	0.0050111 	200410 
865.17 	0.0050111 	200910 
865.67 	0.0050111 	201410 
866.17 	0.0050111 	202080 
866.67 	0.0050111 	202580 
867.17 	0.0050111 	203080 
867.67 	0.0050111 	203580 
868.17 	0.0050111 	204240 
868.67 	0.0050111 	204580 
869.17 	0.0050111 	205070 
869.67 	0.0050111 	205740 
870.17 	0.0050111 	206240 
870.67 	0.0050111 	206910 
871.17 	0.0050111 	207240 
871.67 	0.0050111 	207900 
872.17 	0.0050111 	208400 
872.67 	0.0050111 	208900 
873.17 	0.0050111 	209400 
873.67 	0.0050111 	210070 
874.17 	0.0050111 	210400 
874.67 	0.0050111 	211070 
875.17 	0.0050111 	211730 
875.67 	0.0050111 	212070 
876.17 	0.0050111 	212730 
876.67 	0.0050111 	213230 
877.17 	0.0050111 	213560 
877.67 	0.0050111 	214230 
878.17 	0.0050111 	214730 
878.67 	0.0050111 	215230 
879.17 	0.0050111 	215890 
879.67 	0.0050111 	216390 
880.17 	0.0050111 	216890 
880.67 	0.0050111 	217390 
881.17 	0.0050111 	218060 
881.67 	0.0050111 	218560 
882.17 	0.0050111 	218890 
882.67 	0.0050111 	219560 
883.17 	0.0050111 	220060 
883.67 	0.0050111 	220720 
884.17 	0.0050111 	221050 
884.67 	0.0050111 	221720 
885.17 	0.0050111 	222050 
885.67 	0.0050111 	222720 
886.17 	0.0050111 	223220 
886.67 	0.0050111 	223720 
887.17 	0.0050111 	224380 
887.67 	0.0050111 	224880 
888.17 	0.0050111 	225380 
888.67 	0.0050111 	225880 
889.17 	0.0050111 	226380 
889.67 	0.0050111 	226880 
890.17 	0.0050111 	227550 
890.67 	0.0050111 	228050 
891.17 	0.0050111 	228550 
891.67 	0.0050111 	229040 
892.17 	0.0050111 	229540 
892.67 	0.0050111 	230040 
893.17 	0.0050111 	230710 
893.67 	0.0050111 	231210 
894.17 	0.0050111 	231710 
894.67 	0.0050111 	232210 
895.17 	0.0050111 	232870 
895.67 	0.0050111 	233210 
896.17 	0.0050111 	233710 
896.67 	0.0050111 	234370 
897.17 	0.0050111 	234870 
897.67 	0.0050111 	235200 
898.17 	0.0050111 	235870 
898.67 	0.0050111 	236370 
899.17 	0.0050111 	236870 
899.67 	0.0050111 	237370 
900.17 	0.0050111 	237870 
900.67 	0.0050111 	238530 
901.17 	0.0050111 	239030 
901.67 	0.0050111 	239530 
902.17 	0.0050111 	240030 
902.67 	0.0050111 	240530 
903.17 	0.0050111 	241030 
903.67 	0.0050111 	241360 
904.17 	0.0050111 	242030 
904.67 	0.0050111 	242530 
905.17 	0.0050111 	243030 
905.67 	0.0050111 	243530 
906.17 	0.0050111 	244030 
906.67 	0.0050111 	244530 
907.17 	0.0050111 	244860 
907.67 	0.0050111 	245360 
908.17 	0.0050111 	245860 
908.67 	0.0050111 	246360 
909.17 	0.0050111 	246860 
909.67 	0.0050111 	247350 
910.17 	0.0050111 	247690 
910.67 	0.0050111 	248020 
911.17 	0.0050111 	248190 
911.67 	0.0050111 	248520 
912.17 	0.0050111 	248350 
912.67 	0.0050111 	247190 
912.92 	0.0050111 	245360 
913.02 	0.0050111 	243690 
913.08 	0.0050111 	241530 
913.13 	0.0050111 	239360 
913.17 	0.0050111 	237030 
913.20 	0.0050111 	233540 
913.22 	0.0050111 	230540 
913.23 	0.0050111 	226380 
913.25 	0.0050111 	219060 
913.27 	0.0050111 	192760 
913.28 	0.0050111 	133330 
