Tempo(s)	Deformação(mm)	Força(N)
0.016667 	0.00000 	332.91 
0.51667 	0.00000 	499.37 
1.0167 	0.00010662 	665.83 
1.5167 	0.00010662 	998.74 
2.0167 	0.00021324 	1331.7 
2.5167 	0.00031985 	1831.0 
3.0167 	0.00053309 	2163.9 
3.4333 	0.00063971 	2829.8 
3.9333 	0.00074633 	3162.7 
4.4333 	0.00085294 	3662.0 
4.9333 	0.00074633 	3828.5 
5.4333 	0.00085294 	3828.5 
5.9333 	0.00085294 	3995.0 
6.4333 	0.00095956 	4161.4 
6.9333 	0.00095956 	4327.9 
7.2000 	0.0010662 	4993.7 
7.5500 	0.0012794 	5659.5 
8.0333 	0.0012794 	6325.4 
8.5333 	0.0013860 	6158.9 
9.0333 	0.0014927 	6824.7 
9.3500 	0.0015993 	7490.6 
9.7000 	0.0017059 	8156.4 
10.183 	0.0019191 	8822.2 
10.617 	0.0021324 	9488.0 
10.933 	0.0022390 	10154 
11.350 	0.0024522 	10820 
11.700 	0.0025588 	11486 
12.200 	0.0027721 	11985 
12.583 	0.0028787 	12651 
13.083 	0.0030919 	13317 
13.583 	0.0031985 	13816 
14.083 	0.0033052 	14315 
14.583 	0.0034118 	14815 
15.050 	0.0036250 	15480 
15.550 	0.0037316 	15980 
16.050 	0.0038383 	16313 
16.550 	0.0039449 	16812 
17.050 	0.0040515 	17145 
17.550 	0.0041581 	17644 
18.050 	0.0043713 	18144 
18.450 	0.0044780 	18810 
18.883 	0.0046912 	19475 
19.383 	0.0047978 	20141 
19.883 	0.0050111 	20641 
20.383 	0.0051177 	21140 
20.867 	0.0052243 	21806 
21.367 	0.0053309 	22305 
21.867 	0.0054375 	22805 
22.367 	0.0056508 	22971 
22.867 	0.0056508 	23137 
23.367 	0.0056508 	23304 
23.867 	0.0057574 	23304 
24.367 	0.0057574 	23304 
24.867 	0.0057574 	23304 
25.367 	0.0056508 	23304 
25.867 	0.0056508 	23137 
26.367 	0.0056508 	23304 
26.867 	0.0057574 	23304 
27.367 	0.0056508 	23304 
27.867 	0.0056508 	23304 
28.367 	0.0056508 	23137 
28.867 	0.0056508 	23137 
29.367 	0.0056508 	23304 
29.867 	0.0056508 	23304 
30.367 	0.0056508 	23304 
30.867 	0.0056508 	23304 
31.367 	0.0056508 	23470 
31.867 	0.0056508 	23304 
32.367 	0.0056508 	23304 
32.867 	0.0056508 	23304 
33.367 	0.0055441 	23304 
33.867 	0.0056508 	23304 
34.367 	0.0056508 	23304 
34.867 	0.0056508 	23304 
35.367 	0.0056508 	23304 
35.867 	0.0056508 	23304 
36.367 	0.0056508 	23304 
36.867 	0.0056508 	23304 
37.367 	0.0056508 	23304 
37.867 	0.0055441 	23304 
38.367 	0.0055441 	23304 
38.867 	0.0055441 	23304 
39.367 	0.0055441 	23304 
39.867 	0.0055441 	23137 
40.367 	0.0056508 	23304 
40.867 	0.0056508 	23470 
41.367 	0.0056508 	23304 
41.867 	0.0056508 	23304 
42.367 	0.0056508 	23304 
42.867 	0.0056508 	23304 
43.367 	0.0056508 	23304 
43.867 	0.0056508 	23304 
44.367 	0.0056508 	23304 
44.867 	0.0056508 	23304 
45.367 	0.0056508 	23304 
45.867 	0.0056508 	23304 
46.367 	0.0055441 	23304 
46.867 	0.0056508 	23304 
47.367 	0.0055441 	23304 
47.867 	0.0056508 	23304 
48.367 	0.0055441 	23304 
48.867 	0.0056508 	23304 
49.367 	0.0056508 	23137 
49.867 	0.0055441 	23304 
50.367 	0.0056508 	23304 
50.867 	0.0056508 	23470 
51.367 	0.0056508 	23304 
51.867 	0.0056508 	23304 
52.367 	0.0056508 	23304 
52.867 	0.0056508 	23304 
53.367 	0.0055441 	23304 
53.867 	0.0056508 	23304 
54.367 	0.0056508 	23304 
54.867 	0.0055441 	23304 
55.367 	0.0056508 	23304 
55.867 	0.0055441 	23304 
56.367 	0.0055441 	23304 
56.867 	0.0055441 	23304 
57.367 	0.0055441 	23304 
57.867 	0.0055441 	23470 
58.367 	0.0055441 	23304 
58.867 	0.0055441 	23304 
59.367 	0.0055441 	23304 
59.867 	0.0055441 	23304 
60.367 	0.0055441 	23304 
60.867 	0.0055441 	23304 
61.367 	0.0055441 	23304 
61.867 	0.0055441 	23304 
62.367 	0.0055441 	23304 
62.867 	0.0054375 	23304 
63.367 	0.0054375 	23304 
63.867 	0.0055441 	23470 
64.367 	0.0055441 	23470 
64.867 	0.0054375 	23470 
65.367 	0.0054375 	23304 
65.867 	0.0054375 	23304 
66.367 	0.0055441 	23304 
66.867 	0.0055441 	23304 
67.367 	0.0055441 	23304 
67.867 	0.0054375 	23304 
68.367 	0.0054375 	23304 
68.867 	0.0054375 	23304 
69.367 	0.0054375 	23304 
69.867 	0.0054375 	23304 
70.367 	0.0054375 	23304 
70.867 	0.0054375 	23304 
71.367 	0.0054375 	23137 
71.867 	0.0054375 	23137 
72.367 	0.0054375 	23137 
72.867 	0.0054375 	23470 
73.367 	0.0054375 	23304 
73.867 	0.0054375 	23304 
74.367 	0.0054375 	23304 
74.867 	0.0054375 	23304 
75.367 	0.0054375 	23137 
75.867 	0.0053309 	23304 
76.367 	0.0053309 	23304 
76.867 	0.0053309 	23304 
77.367 	0.0053309 	23304 
77.867 	0.0053309 	23137 
78.367 	0.0053309 	23304 
78.867 	0.0053309 	23304 
79.367 	0.0052243 	23304 
79.867 	0.0053309 	23304 
80.367 	0.0053309 	23304 
80.867 	0.0052243 	23137 
81.367 	0.0053309 	23304 
81.867 	0.0052243 	23304 
82.367 	0.0052243 	23304 
82.867 	0.0052243 	23137 
83.317 	0.0050111 	22472 
83.817 	0.0049044 	21972 
84.317 	0.0047978 	21473 
84.817 	0.0045846 	20974 
85.317 	0.0044780 	20308 
85.817 	0.0043713 	19975 
86.317 	0.0042647 	19475 
86.817 	0.0041581 	18976 
87.317 	0.0040515 	18477 
87.817 	0.0039449 	18144 
88.317 	0.0038383 	17811 
88.817 	0.0037316 	17312 
89.167 	0.0035184 	16646 
89.600 	0.0034118 	15980 
90.100 	0.0031985 	15480 
90.583 	0.0030919 	14815 
91.083 	0.0029853 	14315 
91.583 	0.0028787 	13816 
92.083 	0.0026655 	13317 
92.583 	0.0025588 	12651 
93.083 	0.0023456 	12318 
93.583 	0.0022390 	11818 
94.083 	0.0021324 	11153 
94.583 	0.0020257 	10820 
95.083 	0.0018125 	10320 
95.517 	0.0017059 	9654.5 
96.017 	0.0015993 	9321.6 
96.517 	0.0013860 	8822.2 
96.983 	0.0012794 	8156.4 
97.483 	0.0012794 	7823.5 
97.983 	0.0010662 	7157.6 
98.483 	0.00095956 	6824.7 
98.983 	0.00085294 	6491.8 
99.483 	0.00074633 	5992.4 
99.983 	0.00063971 	5659.5 
100.48 	0.00053309 	5160.2 
100.98 	0.00042647 	4660.8 
101.48 	0.00031985 	4327.9 
101.98 	0.00021324 	4161.4 
102.48 	0.00021324 	3828.5 
102.98 	0.00010662 	3495.6 
103.48 	0.00010662 	3329.1 
103.98 	0.00010662 	3162.7 
104.48 	0.00021324 	3162.7 
104.98 	0.00021324 	3329.1 
105.48 	0.00021324 	3162.7 
105.98 	0.00021324 	3162.7 
106.48 	0.00031985 	2996.2 
106.98 	0.00031985 	2829.8 
107.48 	0.00021324 	2829.8 
107.98 	0.00021324 	2663.3 
108.48 	0.00010662 	2330.4 
108.98 	0.00000 	1997.5 
109.48 	-0.0001068 	1831.0 
109.98 	-0.0002136 	1498.1 
110.48 	-0.0002136 	1498.1 
110.98 	-0.0002136 	1498.1 
111.48 	-0.0002136 	1331.7 
111.98 	-0.0002136 	1331.7 
112.48 	-0.0002136 	1331.7 
112.98 	-0.0003204 	1165.2 
113.48 	-0.0003204 	1165.2 
113.98 	-0.0003204 	1165.2 
114.48 	-0.0003204 	1165.2 
114.98 	-0.0003204 	1165.2 
115.48 	-0.0003204 	1165.2 
115.98 	-0.0003204 	1165.2 
116.48 	-0.0003204 	1165.2 
116.98 	-0.0003204 	1165.2 
117.48 	-0.0003204 	1165.2 
117.98 	-0.0003204 	1165.2 
118.48 	-0.0004273 	1165.2 
118.98 	-0.0003204 	1165.2 
119.48 	-0.0004273 	1165.2 
119.98 	-0.0004273 	1165.2 
120.48 	-0.0003204 	1165.2 
120.98 	-0.0003204 	1165.2 
121.48 	-0.0003204 	1165.2 
121.98 	-0.0004273 	1331.7 
122.48 	-0.0004273 	1165.2 
122.98 	-0.0003204 	1165.2 
123.48 	-0.0004273 	1165.2 
123.98 	-0.0004273 	1165.2 
124.48 	-0.0003204 	1165.2 
124.98 	-0.0003204 	1165.2 
125.48 	-0.0003204 	998.74 
125.98 	-0.0003204 	998.74 
126.48 	-0.0003204 	1331.7 
126.98 	-0.0003204 	1165.2 
127.48 	-0.0003204 	1165.2 
127.98 	-0.0003204 	1165.2 
128.48 	-0.0003204 	1165.2 
128.98 	-0.0003204 	1165.2 
129.48 	-0.0003204 	1165.2 
129.98 	-0.0003204 	1165.2 
130.48 	-0.0003204 	1165.2 
130.98 	-0.0003204 	1165.2 
131.48 	-0.0004273 	998.74 
131.98 	-0.0003204 	1165.2 
132.48 	-0.0003204 	1331.7 
132.98 	-0.0003204 	1165.2 
133.48 	-0.0003204 	1165.2 
133.98 	-0.0003204 	1165.2 
134.48 	-0.0003204 	1165.2 
134.98 	-0.0003204 	998.74 
135.48 	-0.0003204 	1165.2 
135.98 	-0.0003204 	1165.2 
136.48 	-0.0003204 	1165.2 
136.98 	-0.0004273 	1165.2 
137.48 	-0.0004273 	1165.2 
137.98 	-0.0004273 	1165.2 
138.48 	-0.0003204 	1165.2 
138.98 	-0.0004273 	1165.2 
139.48 	-0.0004273 	1165.2 
139.98 	-0.0004273 	1165.2 
140.48 	-0.0004273 	1165.2 
140.98 	-0.0003204 	1165.2 
141.48 	-0.0004273 	1165.2 
141.98 	-0.0004273 	1165.2 
142.48 	-0.0004273 	1165.2 
142.98 	-0.0004273 	1165.2 
143.48 	-0.0004273 	1331.7 
143.98 	-0.0004273 	998.74 
144.48 	-0.0004273 	1165.2 
144.98 	-0.0004273 	1331.7 
145.48 	-0.0004273 	1165.2 
145.98 	-0.0004273 	1165.2 
146.48 	-0.0005341 	1165.2 
146.98 	-0.0004273 	1165.2 
147.48 	-0.0004273 	1165.2 
147.98 	-0.0004273 	1331.7 
148.48 	-0.0004273 	1165.2 
148.98 	-0.0004273 	1165.2 
149.48 	-0.0004273 	1165.2 
149.98 	-0.0004273 	1165.2 
150.48 	-0.0004273 	1165.2 
150.98 	-0.0004273 	998.74 
151.48 	-0.0003204 	1165.2 
151.98 	-0.0003204 	1165.2 
152.48 	-0.0003204 	1331.7 
152.98 	-0.0004273 	1165.2 
153.48 	-0.0004273 	1165.2 
153.98 	-0.0003204 	1165.2 
154.48 	-0.0003204 	1165.2 
154.98 	-0.0003204 	1165.2 
155.48 	-0.0003204 	1165.2 
155.98 	-0.0004273 	1165.2 
156.48 	-0.0003204 	1331.7 
156.98 	-0.0003204 	1165.2 
157.48 	-0.0004273 	998.74 
157.98 	-0.0004273 	1165.2 
158.48 	-0.0004273 	1165.2 
158.98 	-0.0003204 	1165.2 
159.48 	-0.0003204 	1165.2 
159.98 	-0.0004273 	1165.2 
160.48 	-0.0003204 	1165.2 
160.98 	-0.0003204 	1165.2 
161.48 	-0.0003204 	1331.7 
161.98 	-0.0003204 	1165.2 
162.48 	-0.0003204 	1165.2 
162.98 	-0.0003204 	1165.2 
163.48 	-0.0004273 	1331.7 
163.98 	-0.0004273 	1165.2 
164.48 	-0.0003204 	998.74 
164.98 	-0.0003204 	998.74 
165.48 	-0.0004273 	1165.2 
165.98 	-0.0003204 	1165.2 
166.48 	-0.0003204 	1165.2 
166.98 	-0.0003204 	1165.2 
167.48 	-0.0003204 	1498.1 
167.98 	-0.0002136 	1997.5 
168.48 	-0.0001068 	2330.4 
168.98 	0.00000 	2663.3 
169.48 	0.00010662 	3162.7 
169.98 	0.00021324 	3662.0 
170.48 	0.00021324 	3828.5 
170.98 	0.00021324 	3828.5 
171.48 	0.00021324 	3828.5 
171.98 	0.00021324 	3995.0 
172.48 	0.00031985 	4161.4 
172.70 	0.00042647 	4827.2 
173.13 	0.00053309 	5493.1 
173.55 	0.00063971 	6158.9 
174.05 	0.00074633 	6325.4 
174.55 	0.00085294 	6325.4 
174.82 	0.00085294 	6991.2 
175.15 	0.0010662 	7657.0 
175.57 	0.0011728 	8489.3 
176.00 	0.0013860 	9155.1 
176.40 	0.0015993 	9820.9 
176.88 	0.0018125 	10487 
177.28 	0.0019191 	11153 
177.72 	0.0021324 	11818 
178.17 	0.0022390 	12484 
178.67 	0.0024522 	12984 
179.15 	0.0025588 	13649 
179.65 	0.0026655 	14149 
180.15 	0.0027721 	14648 
180.57 	0.0029853 	15314 
181.07 	0.0030919 	15647 
181.57 	0.0031985 	16146 
182.07 	0.0033052 	16479 
182.57 	0.0034118 	16979 
183.07 	0.0035184 	17478 
183.57 	0.0036250 	17977 
184.03 	0.0038383 	18643 
184.45 	0.0039449 	19309 
184.95 	0.0041581 	19808 
185.42 	0.0042647 	20474 
185.92 	0.0044780 	20974 
186.42 	0.0045846 	21473 
186.92 	0.0046912 	22139 
187.42 	0.0047978 	22638 
187.92 	0.0050111 	22971 
188.42 	0.0050111 	23137 
188.92 	0.0050111 	23304 
189.42 	0.0050111 	23304 
189.92 	0.0050111 	23304 
190.42 	0.0050111 	23137 
190.92 	0.0050111 	23137 
191.42 	0.0050111 	23304 
191.92 	0.0050111 	23304 
192.42 	0.0050111 	23304 
192.92 	0.0050111 	23137 
193.42 	0.0050111 	23137 
193.92 	0.0050111 	23304 
194.42 	0.0050111 	23304 
194.92 	0.0050111 	23304 
195.42 	0.0050111 	23304 
195.92 	0.0050111 	23304 
196.42 	0.0050111 	23304 
196.92 	0.0050111 	23304 
197.42 	0.0050111 	23304 
197.92 	0.0050111 	23304 
198.42 	0.0050111 	23304 
198.92 	0.0050111 	23137 
199.42 	0.0050111 	23304 
199.92 	0.0050111 	23304 
200.42 	0.0050111 	23470 
200.92 	0.0050111 	23304 
201.42 	0.0050111 	23304 
201.92 	0.0049044 	23137 
202.42 	0.0050111 	23304 
202.92 	0.0050111 	23137 
203.42 	0.0050111 	23304 
203.92 	0.0050111 	23470 
204.42 	0.0050111 	23304 
204.92 	0.0050111 	23304 
205.42 	0.0050111 	23304 
205.92 	0.0050111 	23304 
206.42 	0.0050111 	23304 
206.92 	0.0050111 	23470 
207.42 	0.0050111 	23304 
207.92 	0.0049044 	23304 
208.42 	0.0050111 	23137 
208.92 	0.0050111 	23137 
209.42 	0.0050111 	23304 
209.92 	0.0050111 	23304 
210.42 	0.0050111 	23304 
210.92 	0.0050111 	23304 
211.42 	0.0050111 	23304 
211.92 	0.0049044 	23304 
212.42 	0.0050111 	23304 
212.92 	0.0050111 	23304 
213.42 	0.0050111 	23304 
213.92 	0.0049044 	23304 
214.42 	0.0049044 	23304 
214.92 	0.0050111 	23304 
215.42 	0.0050111 	23470 
215.92 	0.0050111 	23304 
216.42 	0.0050111 	23304 
216.92 	0.0049044 	23304 
217.42 	0.0049044 	23304 
217.92 	0.0050111 	23470 
218.42 	0.0049044 	23304 
218.92 	0.0050111 	23304 
219.42 	0.0049044 	23304 
219.92 	0.0049044 	23304 
220.42 	0.0049044 	23304 
220.92 	0.0049044 	23304 
221.42 	0.0050111 	23304 
221.92 	0.0049044 	23470 
222.42 	0.0050111 	23304 
222.92 	0.0049044 	23137 
223.42 	0.0050111 	23137 
223.92 	0.0049044 	23304 
224.42 	0.0049044 	23304 
224.92 	0.0050111 	23304 
225.42 	0.0050111 	23304 
225.92 	0.0050111 	23304 
226.42 	0.0050111 	23304 
226.92 	0.0050111 	23304 
227.42 	0.0050111 	23304 
227.92 	0.0050111 	23304 
228.42 	0.0050111 	23137 
228.92 	0.0050111 	23304 
229.42 	0.0050111 	23304 
229.92 	0.0050111 	23304 
230.42 	0.0050111 	23304 
230.92 	0.0050111 	23304 
231.42 	0.0050111 	23304 
231.92 	0.0050111 	23304 
232.42 	0.0050111 	23304 
232.92 	0.0050111 	23137 
233.42 	0.0050111 	23137 
233.92 	0.0049044 	23304 
234.42 	0.0050111 	23304 
234.92 	0.0050111 	23304 
235.42 	0.0050111 	23304 
235.92 	0.0050111 	23304 
236.42 	0.0050111 	23304 
236.92 	0.0049044 	23137 
237.42 	0.0050111 	23137 
237.92 	0.0050111 	23304 
238.42 	0.0050111 	23470 
238.92 	0.0050111 	23470 
239.42 	0.0050111 	23304 
239.92 	0.0050111 	23137 
240.42 	0.0050111 	23304 
240.92 	0.0050111 	23304 
241.42 	0.0050111 	23470 
241.92 	0.0050111 	23304 
242.42 	0.0050111 	23304 
242.92 	0.0050111 	23137 
243.42 	0.0050111 	23304 
243.92 	0.0050111 	23137 
244.42 	0.0050111 	23304 
244.92 	0.0050111 	23470 
245.42 	0.0050111 	23304 
245.92 	0.0050111 	23137 
246.42 	0.0049044 	23137 
246.92 	0.0050111 	23304 
247.42 	0.0050111 	23304 
247.92 	0.0049044 	23304 
248.42 	0.0049044 	23304 
248.83 	0.0049044 	22638 
249.33 	0.0046912 	22305 
249.80 	0.0045846 	21639 
250.30 	0.0044780 	21140 
250.80 	0.0042647 	20641 
251.30 	0.0041581 	20308 
251.72 	0.0040515 	19642 
252.22 	0.0039449 	19309 
252.72 	0.0038383 	18810 
253.22 	0.0037316 	18477 
253.72 	0.0036250 	17977 
254.22 	0.0035184 	17644 
254.70 	0.0033052 	16979 
255.08 	0.0031985 	16313 
255.58 	0.0029853 	15647 
256.08 	0.0028787 	15148 
256.58 	0.0027721 	14648 
257.08 	0.0025588 	14149 
257.53 	0.0024522 	13483 
258.03 	0.0023456 	12984 
258.53 	0.0021324 	12484 
259.03 	0.0021324 	12151 
259.48 	0.0019191 	11486 
259.98 	0.0018125 	11319 
260.25 	0.0018125 	10653 
260.75 	0.0015993 	10320 
261.25 	0.0014927 	9654.5 
261.75 	0.0013860 	9321.6 
262.25 	0.0012794 	8988.7 
262.55 	0.0011728 	8322.8 
263.05 	0.0010662 	7989.9 
263.55 	0.00095956 	7490.6 
264.05 	0.00074633 	6824.7 
264.55 	0.00063971 	6658.3 
265.00 	0.00053309 	5992.4 
265.50 	0.00053309 	5659.5 
266.00 	0.00031985 	5160.2 
266.50 	0.00021324 	4827.2 
267.00 	0.00021324 	4494.3 
267.50 	0.00010662 	4161.4 
268.00 	0.00010662 	3995.0 
268.50 	0.00000 	3662.0 
269.00 	0.00000 	3329.1 
269.50 	0.00000 	3329.1 
270.00 	0.00000 	3162.7 
270.50 	0.00010662 	3162.7 
271.00 	0.00000 	3162.7 
271.50 	0.00010662 	3162.7 
272.00 	0.00010662 	2996.2 
272.50 	0.00000 	2996.2 
273.00 	0.00000 	2996.2 
273.50 	0.00000 	2829.8 
274.00 	-0.0001068 	2330.4 
274.50 	-0.0002136 	1997.5 
275.00 	-0.0003204 	1664.6 
275.50 	-0.0004273 	1664.6 
276.00 	-0.0004273 	1498.1 
276.50 	-0.0004273 	1331.7 
277.00 	-0.0004273 	1331.7 
277.50 	-0.0004273 	1331.7 
278.00 	-0.0005341 	1165.2 
278.50 	-0.0005341 	1165.2 
279.00 	-0.0005341 	1165.2 
279.50 	-0.0005341 	1165.2 
280.00 	-0.0005341 	1165.2 
280.50 	-0.0005341 	1165.2 
281.00 	-0.0005341 	1165.2 
281.50 	-0.0005341 	1165.2 
282.00 	-0.0005341 	1165.2 
282.50 	-0.0005341 	1165.2 
283.00 	-0.0005341 	1165.2 
283.50 	-0.0005341 	1165.2 
284.00 	-0.0005341 	1165.2 
284.50 	-0.0006409 	1165.2 
285.00 	-0.0005341 	1165.2 
285.50 	-0.0005341 	1165.2 
286.00 	-0.0006409 	1165.2 
286.50 	-0.0006409 	1165.2 
287.00 	-0.0005341 	1165.2 
287.50 	-0.0006409 	1331.7 
288.00 	-0.0005341 	1165.2 
288.50 	-0.0005341 	1165.2 
289.00 	-0.0005341 	1165.2 
289.50 	-0.0005341 	1165.2 
290.00 	-0.0005341 	1331.7 
290.50 	-0.0005341 	1165.2 
291.00 	-0.0005341 	1165.2 
291.50 	-0.0005341 	1165.2 
292.00 	-0.0005341 	1165.2 
292.50 	-0.0005341 	1165.2 
293.00 	-0.0005341 	1165.2 
293.50 	-0.0005341 	1165.2 
294.00 	-0.0006409 	1165.2 
294.50 	-0.0006409 	1331.7 
295.00 	-0.0005341 	1165.2 
295.50 	-0.0006409 	1165.2 
296.00 	-0.0005341 	1165.2 
296.50 	-0.0005341 	1165.2 
297.00 	-0.0006409 	1165.2 
297.50 	-0.0006409 	1165.2 
298.00 	-0.0006409 	1165.2 
298.50 	-0.0006409 	1165.2 
299.00 	-0.0006409 	1165.2 
299.50 	-0.0006409 	1331.7 
300.00 	-0.0006409 	1165.2 
300.50 	-0.0006409 	1165.2 
301.00 	-0.0006409 	1165.2 
301.50 	-0.0006409 	1165.2 
302.00 	-0.0006409 	1331.7 
302.50 	-0.0006409 	1165.2 
303.00 	-0.0006409 	1165.2 
303.50 	-0.0006409 	1165.2 
304.00 	-0.0006409 	1165.2 
304.50 	-0.0006409 	1165.2 
305.00 	-0.0006409 	1165.2 
305.50 	-0.0006409 	1165.2 
306.00 	-0.0006409 	1165.2 
306.50 	-0.0006409 	1165.2 
307.00 	-0.0006409 	1165.2 
307.50 	-0.0006409 	1165.2 
308.00 	-0.0006409 	1165.2 
308.50 	-0.0007478 	1331.7 
309.00 	-0.0006409 	1331.7 
309.50 	-0.0006409 	1165.2 
310.00 	-0.0007478 	1165.2 
310.50 	-0.0007478 	1165.2 
311.00 	-0.0007478 	1331.7 
311.50 	-0.0007478 	1165.2 
312.00 	-0.0007478 	1165.2 
312.50 	-0.0007478 	1165.2 
313.00 	-0.0007478 	1331.7 
313.50 	-0.0007478 	1165.2 
314.00 	-0.0007478 	1165.2 
314.50 	-0.0007478 	1165.2 
315.00 	-0.0007478 	1165.2 
315.50 	-0.0007478 	1165.2 
316.00 	-0.0007478 	1165.2 
316.50 	-0.0007478 	1165.2 
317.00 	-0.0007478 	1165.2 
317.50 	-0.0007478 	1165.2 
318.00 	-0.0007478 	1165.2 
318.50 	-0.0007478 	1331.7 
319.00 	-0.0007478 	1165.2 
319.50 	-0.0007478 	1165.2 
320.00 	-0.0007478 	1165.2 
320.50 	-0.0007478 	1165.2 
321.00 	-0.0006409 	1165.2 
321.50 	-0.0007478 	1165.2 
322.00 	-0.0007478 	1165.2 
322.50 	-0.0007478 	1165.2 
323.00 	-0.0007478 	1165.2 
323.50 	-0.0007478 	1165.2 
324.00 	-0.0007478 	1165.2 
324.50 	-0.0007478 	1165.2 
325.00 	-0.0007478 	1165.2 
325.50 	-0.0007478 	1165.2 
326.00 	-0.0007478 	1165.2 
326.50 	-0.0007478 	1165.2 
327.00 	-0.0007478 	1165.2 
327.50 	-0.0007478 	1165.2 
328.00 	-0.0007478 	1165.2 
328.50 	-0.0007478 	1165.2 
329.00 	-0.0007478 	1165.2 
329.50 	-0.0007478 	1165.2 
330.00 	-0.0007478 	1165.2 
330.50 	-0.0007478 	1331.7 
331.00 	-0.0007478 	1331.7 
331.50 	-0.0007478 	1165.2 
332.00 	-0.0007478 	998.74 
332.50 	-0.0007478 	1331.7 
333.00 	-0.0007478 	1498.1 
333.50 	-0.0006409 	1831.0 
334.00 	-0.0006409 	1997.5 
334.50 	-0.0004273 	2496.9 
335.00 	-0.0003204 	2996.2 
335.50 	-0.0002136 	3495.6 
336.00 	-0.0002136 	3662.0 
336.50 	-0.0002136 	3828.5 
337.00 	-0.0002136 	3828.5 
337.50 	-0.0002136 	3995.0 
338.00 	-0.0001068 	4161.4 
338.47 	0.00000 	4827.2 
338.88 	0.00021324 	5493.1 
339.30 	0.00031985 	6158.9 
339.80 	0.00031985 	6325.4 
340.30 	0.00042647 	6491.8 
340.60 	0.00053309 	7157.6 
340.93 	0.00063971 	7823.5 
341.38 	0.00085294 	8489.3 
341.82 	0.00095956 	9155.1 
342.25 	0.0011728 	9820.9 
342.58 	0.0012794 	10487 
343.00 	0.0014927 	11153 
343.43 	0.0017059 	11818 
343.93 	0.0018125 	12484 
344.43 	0.0020257 	12984 
344.85 	0.0021324 	13649 
345.35 	0.0022390 	14149 
345.85 	0.0024522 	14648 
346.30 	0.0025588 	15314 
346.80 	0.0026655 	15647 
347.30 	0.0027721 	16146 
347.80 	0.0028787 	16479 
348.30 	0.0029853 	16979 
348.80 	0.0030919 	17312 
349.25 	0.0031985 	17977 
349.70 	0.0034118 	18643 
350.13 	0.0035184 	19309 
350.63 	0.0037316 	19808 
351.13 	0.0039449 	20308 
351.55 	0.0040515 	20974 
352.05 	0.0041581 	21306 
352.48 	0.0043713 	21972 
352.98 	0.0044780 	22305 
353.43 	0.0045846 	22971 
353.93 	0.0046912 	23137 
354.43 	0.0046912 	23137 
354.93 	0.0047978 	23304 
355.43 	0.0046912 	23470 
355.93 	0.0046912 	23304 
356.43 	0.0046912 	23304 
356.93 	0.0046912 	23470 
357.43 	0.0046912 	23304 
357.93 	0.0046912 	23304 
358.43 	0.0046912 	23137 
358.93 	0.0046912 	23304 
359.43 	0.0046912 	23304 
359.93 	0.0046912 	23304 
360.43 	0.0047978 	23304 
360.93 	0.0046912 	23304 
361.43 	0.0046912 	23304 
361.93 	0.0047978 	23304 
362.43 	0.0047978 	23304 
362.93 	0.0047978 	23304 
363.43 	0.0047978 	23304 
363.93 	0.0046912 	23304 
364.43 	0.0046912 	23304 
364.93 	0.0046912 	23304 
365.43 	0.0047978 	23304 
365.93 	0.0047978 	23304 
366.43 	0.0047978 	23304 
366.93 	0.0046912 	23304 
367.43 	0.0047978 	23304 
367.93 	0.0046912 	23304 
368.43 	0.0047978 	23304 
368.93 	0.0046912 	23470 
369.43 	0.0046912 	23304 
369.93 	0.0046912 	23304 
370.43 	0.0046912 	23137 
370.93 	0.0046912 	23137 
371.43 	0.0047978 	23304 
371.93 	0.0046912 	23304 
372.43 	0.0047978 	23304 
372.93 	0.0046912 	23304 
373.43 	0.0046912 	23304 
373.93 	0.0046912 	23304 
374.43 	0.0047978 	23304 
374.93 	0.0047978 	23304 
375.43 	0.0047978 	23470 
375.93 	0.0047978 	23304 
376.43 	0.0047978 	23304 
376.93 	0.0047978 	23304 
377.43 	0.0046912 	23304 
377.93 	0.0046912 	23304 
378.43 	0.0047978 	23304 
378.93 	0.0046912 	23304 
379.43 	0.0046912 	23137 
379.93 	0.0046912 	23137 
380.43 	0.0046912 	23304 
380.93 	0.0046912 	23470 
381.43 	0.0046912 	23304 
381.93 	0.0047978 	23304 
382.43 	0.0046912 	23304 
382.93 	0.0046912 	23304 
383.43 	0.0046912 	23304 
383.93 	0.0046912 	23470 
384.43 	0.0047978 	23470 
384.93 	0.0046912 	23470 
385.43 	0.0046912 	23304 
385.93 	0.0046912 	23304 
386.43 	0.0046912 	23304 
386.93 	0.0046912 	23470 
387.43 	0.0046912 	23304 
387.93 	0.0047978 	23470 
388.43 	0.0047978 	23137 
388.93 	0.0047978 	23304 
389.43 	0.0046912 	23304 
389.93 	0.0046912 	23470 
390.43 	0.0047978 	23304 
390.93 	0.0046912 	23304 
391.43 	0.0046912 	23304 
391.93 	0.0046912 	23304 
392.43 	0.0046912 	23304 
392.93 	0.0047978 	23304 
393.43 	0.0046912 	23304 
393.93 	0.0047978 	23470 
394.43 	0.0046912 	23304 
394.93 	0.0047978 	23304 
395.43 	0.0046912 	23470 
395.93 	0.0046912 	23304 
396.43 	0.0046912 	23137 
396.93 	0.0047978 	23304 
397.43 	0.0047978 	23304 
397.93 	0.0047978 	23304 
398.43 	0.0046912 	23304 
398.93 	0.0046912 	23304 
399.43 	0.0046912 	23304 
399.93 	0.0046912 	23304 
400.43 	0.0047978 	23304 
400.93 	0.0046912 	23304 
401.43 	0.0047978 	23304 
401.93 	0.0046912 	23304 
402.43 	0.0046912 	23304 
402.93 	0.0046912 	23304 
403.43 	0.0046912 	23304 
403.93 	0.0046912 	23304 
404.43 	0.0046912 	23304 
404.93 	0.0046912 	23304 
405.43 	0.0046912 	23304 
405.93 	0.0046912 	23304 
406.43 	0.0046912 	23304 
406.93 	0.0047978 	23304 
407.43 	0.0047978 	23304 
407.93 	0.0046912 	23304 
408.43 	0.0046912 	23304 
408.93 	0.0046912 	23137 
409.43 	0.0046912 	23304 
409.93 	0.0047978 	23304 
410.43 	0.0046912 	23304 
410.93 	0.0046912 	23304 
411.43 	0.0046912 	23137 
411.93 	0.0047978 	23304 
412.43 	0.0046912 	23137 
412.93 	0.0047978 	23304 
413.43 	0.0047978 	23304 
413.93 	0.0047978 	23304 
414.43 	0.0046912 	22805 
414.93 	0.0044780 	22305 
415.43 	0.0043713 	21806 
415.93 	0.0042647 	21140 
416.43 	0.0040515 	20807 
416.93 	0.0039449 	20308 
417.43 	0.0038383 	19808 
417.93 	0.0037316 	19309 
418.43 	0.0036250 	18976 
418.93 	0.0035184 	18477 
419.43 	0.0034118 	18144 
419.93 	0.0033052 	17644 
420.33 	0.0031985 	16979 
420.72 	0.0029853 	16313 
421.22 	0.0027721 	15813 
421.72 	0.0026655 	15148 
422.22 	0.0024522 	14815 
422.72 	0.0023456 	14315 
423.17 	0.0022390 	13649 
423.67 	0.0021324 	13150 
424.17 	0.0019191 	12651 
424.67 	0.0019191 	12318 
425.08 	0.0018125 	11652 
425.58 	0.0015993 	11153 
426.08 	0.0014927 	10653 
426.58 	0.0013860 	10154 
427.08 	0.0012794 	9820.9 
427.43 	0.0010662 	9155.1 
427.93 	0.00095956 	8822.2 
428.43 	0.00085294 	8322.8 
428.93 	0.00074633 	7989.9 
429.32 	0.00063971 	7324.1 
429.82 	0.00053309 	6991.2 
430.32 	0.00031985 	6491.8 
430.82 	0.00031985 	6325.4 
431.18 	0.00021324 	5659.5 
431.68 	0.00010662 	5326.6 
432.18 	0.00000 	4993.7 
432.68 	-0.0001068 	4494.3 
433.18 	-0.0001068 	4161.4 
433.68 	-0.0002136 	3995.0 
434.18 	-0.0002136 	3828.5 
434.68 	-0.0003204 	3495.6 
435.18 	-0.0002136 	3329.1 
435.68 	-0.0002136 	3162.7 
436.18 	-0.0002136 	3329.1 
436.68 	-0.0002136 	3329.1 
437.18 	-0.0001068 	3162.7 
437.68 	-0.0002136 	3162.7 
438.18 	-0.0002136 	3162.7 
438.68 	-0.0002136 	2996.2 
439.18 	-0.0003204 	2663.3 
439.68 	-0.0004273 	2330.4 
440.18 	-0.0005341 	1831.0 
440.68 	-0.0005341 	1664.6 
441.18 	-0.0006409 	1498.1 
441.68 	-0.0006409 	1498.1 
442.18 	-0.0007478 	1498.1 
442.68 	-0.0007478 	1331.7 
443.18 	-0.0007478 	1331.7 
443.68 	-0.0007478 	1331.7 
444.18 	-0.0007478 	1165.2 
444.68 	-0.0007478 	1165.2 
445.18 	-0.0007478 	1165.2 
445.68 	-0.0007478 	1165.2 
446.18 	-0.0008546 	1165.2 
446.68 	-0.0007478 	1331.7 
447.18 	-0.0007478 	1165.2 
447.68 	-0.0007478 	1165.2 
448.18 	-0.0007478 	1165.2 
448.68 	-0.0008546 	1165.2 
449.18 	-0.0007478 	1331.7 
449.68 	-0.0007478 	1165.2 
450.18 	-0.0007478 	1165.2 
450.68 	-0.0008546 	1165.2 
451.18 	-0.0007478 	1165.2 
451.68 	-0.0007478 	1165.2 
452.18 	-0.0007478 	1165.2 
452.68 	-0.0007478 	1165.2 
453.18 	-0.0007478 	1165.2 
453.68 	-0.0007478 	1165.2 
454.18 	-0.0008546 	1165.2 
454.68 	-0.0007478 	1165.2 
455.18 	-0.0008546 	1165.2 
455.68 	-0.0008546 	1165.2 
456.18 	-0.0008546 	1165.2 
456.68 	-0.0007478 	1165.2 
457.18 	-0.0007478 	1165.2 
457.68 	-0.0008546 	1165.2 
458.18 	-0.0008546 	1165.2 
458.68 	-0.0008546 	1165.2 
459.18 	-0.0008546 	1165.2 
459.68 	-0.0007478 	1165.2 
460.18 	-0.0007478 	1331.7 
460.68 	-0.0008546 	1165.2 
461.18 	-0.0007478 	1165.2 
461.68 	-0.0007478 	1165.2 
462.18 	-0.0007478 	1165.2 
462.68 	-0.0007478 	1165.2 
463.18 	-0.0008546 	1165.2 
463.68 	-0.0008546 	1165.2 
464.18 	-0.0008546 	1165.2 
464.68 	-0.0008546 	1331.7 
465.18 	-0.0009614 	1165.2 
465.68 	-0.0009614 	998.74 
466.18 	-0.0009614 	1165.2 
466.68 	-0.0009614 	1165.2 
467.18 	-0.0009614 	1165.2 
467.68 	-0.0009614 	1165.2 
468.18 	-0.0009614 	1165.2 
468.68 	-0.0009614 	1165.2 
469.18 	-0.0010683 	1165.2 
469.68 	-0.0010683 	1165.2 
470.18 	-0.0009614 	1165.2 
470.68 	-0.0010683 	1165.2 
471.18 	-0.0010683 	1165.2 
471.68 	-0.0010683 	1165.2 
472.18 	-0.0010683 	1165.2 
472.68 	-0.0010683 	1165.2 
473.18 	-0.0010683 	1165.2 
473.68 	-0.0010683 	1165.2 
474.18 	-0.0010683 	998.74 
474.68 	-0.0010683 	1165.2 
475.18 	-0.0010683 	1331.7 
475.68 	-0.0010683 	1165.2 
476.18 	-0.0011751 	998.74 
476.68 	-0.0011751 	1165.2 
477.18 	-0.0011751 	998.74 
477.68 	-0.0011751 	1165.2 
478.18 	-0.0011751 	1165.2 
478.68 	-0.0011751 	998.74 
479.18 	-0.0011751 	1165.2 
479.68 	-0.0011751 	1165.2 
480.18 	-0.0011751 	1165.2 
480.68 	-0.0011751 	1165.2 
481.18 	-0.0011751 	1165.2 
481.68 	-0.0011751 	1165.2 
482.18 	-0.0011751 	1331.7 
482.68 	-0.0011751 	1165.2 
483.18 	-0.0011751 	998.74 
483.68 	-0.0011751 	1165.2 
484.18 	-0.0011751 	1165.2 
484.68 	-0.0011751 	1331.7 
485.18 	-0.0011751 	998.74 
485.68 	-0.0011751 	998.74 
486.18 	-0.0011751 	1165.2 
486.68 	-0.0011751 	1165.2 
487.18 	-0.0011751 	1165.2 
487.68 	-0.0011751 	1165.2 
488.18 	-0.0011751 	1165.2 
488.68 	-0.0011751 	1165.2 
489.18 	-0.0011751 	1165.2 
489.68 	-0.0011751 	1165.2 
490.18 	-0.0011751 	1165.2 
490.68 	-0.0011751 	1165.2 
491.18 	-0.0011751 	1165.2 
491.68 	-0.0011751 	998.74 
492.18 	-0.0011751 	1165.2 
492.68 	-0.0011751 	1165.2 
493.18 	-0.0011751 	1165.2 
493.68 	-0.0011751 	1165.2 
494.18 	-0.0011751 	1165.2 
494.68 	-0.0011751 	1165.2 
495.18 	-0.0011751 	1331.7 
495.68 	-0.0011751 	1165.2 
496.18 	-0.0011751 	1165.2 
496.68 	-0.0011751 	1165.2 
497.18 	-0.0011751 	1165.2 
497.68 	-0.0011751 	1165.2 
498.00 	-0.0011751 	1165.2 
498.50 	-0.0011751 	1165.2 
499.00 	-0.0011751 	1165.2 
499.50 	-0.0012820 	1331.7 
500.00 	-0.0011751 	1331.7 
500.50 	-0.0012820 	1165.2 
501.00 	-0.0011751 	1165.2 
501.50 	-0.0011751 	1165.2 
502.00 	-0.0011751 	1165.2 
502.50 	-0.0012820 	1165.2 
503.00 	-0.0011751 	1331.7 
503.50 	-0.0011751 	1331.7 
504.00 	-0.0011751 	1165.2 
504.50 	-0.0012820 	1165.2 
505.00 	-0.0012820 	1165.2 
505.50 	-0.0011751 	1165.2 
506.00 	-0.0011751 	1165.2 
506.50 	-0.0012820 	1165.2 
507.00 	-0.0011751 	1165.2 
507.50 	-0.0011751 	1331.7 
508.00 	-0.0011751 	1331.7 
508.50 	-0.0012820 	1165.2 
509.00 	-0.0012820 	1165.2 
509.50 	-0.0011751 	1165.2 
510.00 	-0.0012820 	1331.7 
510.50 	-0.0012820 	1331.7 
511.00 	-0.0011751 	1165.2 
511.50 	-0.0011751 	1165.2 
512.00 	-0.0012820 	1165.2 
512.50 	-0.0011751 	998.74 
513.00 	-0.0012820 	998.74 
513.50 	-0.0011751 	1165.2 
514.00 	-0.0012820 	1331.7 
514.50 	-0.0012820 	1165.2 
515.00 	-0.0012820 	998.74 
515.50 	-0.0011751 	1165.2 
516.00 	-0.0012820 	1331.7 
516.50 	-0.0012820 	1165.2 
517.00 	-0.0012820 	1165.2 
517.50 	-0.0012820 	1165.2 
518.00 	-0.0012820 	1165.2 
518.50 	-0.0012820 	1165.2 
519.00 	-0.0012820 	1165.2 
519.50 	-0.0012820 	998.74 
520.00 	-0.0012820 	1165.2 
520.50 	-0.0012820 	1165.2 
521.00 	-0.0012820 	1331.7 
521.50 	-0.0012820 	1165.2 
522.00 	-0.0012820 	1165.2 
522.50 	-0.0012820 	1165.2 
523.00 	-0.0012820 	1331.7 
523.50 	-0.0012820 	1331.7 
524.00 	-0.0011751 	1165.2 
524.50 	-0.0012820 	1165.2 
525.00 	-0.0012820 	1165.2 
525.50 	-0.0012820 	1165.2 
526.00 	-0.0012820 	1165.2 
526.50 	-0.0012820 	1165.2 
527.00 	-0.0012820 	1165.2 
527.50 	-0.0012820 	1165.2 
527.98 	-0.0011751 	1165.2 
528.48 	-0.0012820 	1165.2 
528.98 	-0.0012820 	1165.2 
529.48 	-0.0012820 	1165.2 
529.98 	-0.0011751 	1498.1 
530.48 	-0.0010683 	1831.0 
530.98 	-0.0009614 	2330.4 
531.48 	-0.0008546 	2829.8 
531.98 	-0.0007478 	3329.1 
532.48 	-0.0006409 	3662.0 
532.98 	-0.0006409 	3828.5 
533.48 	-0.0006409 	3828.5 
533.98 	-0.0006409 	3995.0 
534.48 	-0.0006409 	3995.0 
534.98 	-0.0005341 	4494.3 
535.38 	-0.0004273 	5326.6 
535.88 	-0.0002136 	5992.4 
536.38 	-0.0001068 	6325.4 
536.88 	-0.0001068 	6325.4 
537.20 	-0.0001068 	6991.2 
537.63 	0.00010662 	7657.0 
537.97 	0.00031985 	8322.8 
538.38 	0.00042647 	8988.7 
538.82 	0.00053309 	9654.5 
539.22 	0.00074633 	10320 
539.67 	0.00095956 	11153 
540.17 	0.0011728 	11818 
540.62 	0.0013860 	12484 
541.12 	0.0014927 	12984 
541.55 	0.0015993 	13649 
542.05 	0.0017059 	14149 
542.55 	0.0019191 	14648 
543.05 	0.0020257 	15148 
543.53 	0.0022390 	15813 
544.03 	0.0023456 	16146 
544.53 	0.0024522 	16479 
545.03 	0.0025588 	16979 
545.53 	0.0026655 	17312 
545.87 	0.0026655 	17977 
546.37 	0.0028787 	18477 
546.75 	0.0029853 	19143 
547.25 	0.0031985 	19642 
547.70 	0.0033052 	20308 
548.20 	0.0035184 	20807 
548.67 	0.0036250 	21473 
549.17 	0.0037316 	21806 
549.67 	0.0039449 	22472 
550.17 	0.0039449 	22971 
550.67 	0.0040515 	23137 
551.17 	0.0040515 	23137 
551.67 	0.0041581 	23304 
552.17 	0.0041581 	23304 
552.67 	0.0041581 	23304 
553.17 	0.0041581 	23137 
553.67 	0.0041581 	23137 
554.17 	0.0041581 	23304 
554.67 	0.0041581 	23304 
555.17 	0.0041581 	23304 
555.67 	0.0041581 	23304 
556.17 	0.0041581 	23304 
556.67 	0.0041581 	23304 
557.17 	0.0041581 	23304 
557.67 	0.0041581 	23304 
558.17 	0.0041581 	23304 
558.67 	0.0041581 	23304 
559.17 	0.0041581 	23304 
559.67 	0.0041581 	23470 
560.17 	0.0041581 	23304 
560.67 	0.0041581 	23304 
561.17 	0.0040515 	23304 
561.67 	0.0040515 	23304 
562.17 	0.0040515 	23304 
562.67 	0.0041581 	23304 
563.17 	0.0040515 	23304 
563.67 	0.0040515 	23304 
564.17 	0.0041581 	23304 
564.67 	0.0040515 	23304 
565.17 	0.0040515 	23470 
565.67 	0.0040515 	23304 
566.17 	0.0040515 	23304 
566.67 	0.0040515 	23304 
567.17 	0.0040515 	23470 
567.67 	0.0040515 	23304 
568.17 	0.0040515 	23304 
568.67 	0.0040515 	23304 
569.17 	0.0040515 	23470 
569.67 	0.0040515 	23304 
570.17 	0.0040515 	23470 
570.67 	0.0040515 	23304 
571.17 	0.0040515 	23304 
571.67 	0.0040515 	23304 
572.17 	0.0039449 	23304 
572.67 	0.0040515 	23304 
573.17 	0.0040515 	23304 
573.67 	0.0040515 	23470 
574.17 	0.0040515 	23304 
574.67 	0.0040515 	23304 
575.17 	0.0040515 	23470 
575.67 	0.0040515 	23304 
576.17 	0.0040515 	23304 
576.67 	0.0040515 	23304 
577.17 	0.0040515 	23304 
577.67 	0.0040515 	23304 
578.17 	0.0040515 	23304 
578.67 	0.0040515 	23304 
579.17 	0.0040515 	23304 
579.67 	0.0040515 	23304 
580.17 	0.0040515 	23470 
580.67 	0.0040515 	23470 
581.17 	0.0040515 	23304 
581.67 	0.0040515 	23137 
582.17 	0.0040515 	23304 
582.67 	0.0040515 	23470 
583.17 	0.0040515 	23470 
583.67 	0.0040515 	23304 
584.17 	0.0040515 	23304 
584.67 	0.0040515 	23304 
585.17 	0.0039449 	23137 
585.67 	0.0040515 	23304 
586.17 	0.0040515 	23470 
586.67 	0.0040515 	23304 
587.17 	0.0040515 	23137 
587.67 	0.0039449 	23304 
588.17 	0.0040515 	23304 
588.67 	0.0040515 	23304 
589.17 	0.0040515 	23304 
589.67 	0.0039449 	23304 
590.17 	0.0039449 	23304 
590.67 	0.0040515 	23304 
591.17 	0.0039449 	23470 
591.67 	0.0039449 	23304 
592.17 	0.0039449 	23137 
592.67 	0.0039449 	23304 
593.17 	0.0040515 	23304 
593.67 	0.0040515 	23137 
594.17 	0.0040515 	23304 
594.67 	0.0039449 	23304 
595.17 	0.0039449 	23304 
595.67 	0.0039449 	23304 
596.17 	0.0039449 	23304 
596.67 	0.0039449 	23304 
597.17 	0.0040515 	23304 
597.67 	0.0040515 	23470 
598.17 	0.0039449 	23304 
598.67 	0.0039449 	23137 
599.17 	0.0039449 	23137 
599.67 	0.0039449 	23304 
600.17 	0.0039449 	23304 
600.67 	0.0040515 	23304 
601.17 	0.0039449 	23470 
601.67 	0.0039449 	23470 
602.17 	0.0039449 	23304 
602.67 	0.0039449 	23304 
603.17 	0.0039449 	23470 
603.67 	0.0039449 	23304 
604.17 	0.0039449 	23304 
604.67 	0.0039449 	23304 
605.17 	0.0039449 	23304 
605.67 	0.0039449 	23304 
606.17 	0.0039449 	23137 
606.67 	0.0039449 	23137 
607.17 	0.0039449 	23304 
607.67 	0.0039449 	23470 
608.17 	0.0039449 	23304 
608.67 	0.0039449 	23304 
609.17 	0.0039449 	23304 
609.67 	0.0039449 	23304 
610.17 	0.0039449 	23304 
610.32 	0.0039449 	23304 
610.82 	0.0039449 	23304 
611.32 	0.0039449 	23304 
611.82 	0.0039449 	23304 
612.32 	0.0039449 	23137 
612.82 	0.0039449 	23304 
613.32 	0.0039449 	23304 
613.82 	0.0039449 	23304 
614.32 	0.0039449 	23304 
614.82 	0.0039449 	23304 
615.32 	0.0039449 	23304 
615.82 	0.0039449 	23304 
616.32 	0.0039449 	23470 
616.82 	0.0039449 	23304 
617.32 	0.0039449 	23304 
617.82 	0.0039449 	23304 
618.32 	0.0039449 	23304 
618.82 	0.0039449 	23304 
619.32 	0.0039449 	23304 
619.82 	0.0039449 	23304 
620.32 	0.0039449 	23304 
620.82 	0.0039449 	23304 
621.32 	0.0039449 	23304 
621.82 	0.0039449 	23304 
622.32 	0.0039449 	23304 
622.82 	0.0039449 	23304 
623.32 	0.0039449 	23304 
623.82 	0.0039449 	23304 
624.32 	0.0039449 	23137 
624.82 	0.0039449 	23304 
625.32 	0.0039449 	23304 
625.82 	0.0039449 	23304 
626.32 	0.0040515 	23304 
626.82 	0.0039449 	23304 
627.32 	0.0039449 	23304 
627.82 	0.0040515 	23304 
628.32 	0.0039449 	23304 
628.82 	0.0039449 	23304 
629.32 	0.0039449 	23304 
629.82 	0.0040515 	23470 
630.32 	0.0040515 	23470 
630.82 	0.0039449 	23304 
631.32 	0.0039449 	23304 
631.82 	0.0039449 	23304 
632.32 	0.0039449 	23304 
632.82 	0.0039449 	23304 
633.32 	0.0039449 	23304 
633.82 	0.0039449 	23304 
634.32 	0.0040515 	23304 
634.82 	0.0039449 	23304 
635.32 	0.0040515 	23304 
635.82 	0.0040515 	23304 
636.32 	0.0040515 	23304 
636.82 	0.0039449 	23304 
637.32 	0.0039449 	23304 
637.82 	0.0039449 	23304 
638.32 	0.0039449 	23304 
638.82 	0.0040515 	23304 
639.32 	0.0040515 	23304 
639.82 	0.0040515 	23304 
640.32 	0.0039449 	23137 
640.82 	0.0039449 	23304 
641.32 	0.0039449 	23304 
641.82 	0.0039449 	23304 
642.32 	0.0039449 	23470 
642.82 	0.0039449 	23304 
643.32 	0.0039449 	23304 
643.82 	0.0039449 	23304 
644.32 	0.0039449 	23304 
644.82 	0.0039449 	23470 
645.32 	0.0039449 	23470 
645.82 	0.0039449 	23304 
646.32 	0.0039449 	23137 
646.82 	0.0039449 	23304 
647.32 	0.0039449 	23304 
647.82 	0.0039449 	23304 
648.32 	0.0039449 	23304 
648.82 	0.0039449 	23304 
649.32 	0.0039449 	23304 
649.82 	0.0039449 	23304 
650.32 	0.0039449 	23304 
650.82 	0.0039449 	23304 
651.32 	0.0039449 	23470 
651.82 	0.0039449 	23304 
652.32 	0.0039449 	23304 
652.82 	0.0039449 	23304 
653.32 	0.0039449 	23304 
653.82 	0.0039449 	23304 
654.32 	0.0039449 	23304 
654.82 	0.0039449 	23304 
655.32 	0.0039449 	23304 
655.82 	0.0039449 	23304 
656.32 	0.0039449 	23137 
656.82 	0.0039449 	23304 
657.32 	0.0039449 	23304 
657.82 	0.0039449 	23137 
658.32 	0.0039449 	23304 
658.82 	0.0039449 	23304 
659.32 	0.0039449 	23304 
659.82 	0.0039449 	23470 
660.32 	0.0039449 	23304 
660.82 	0.0039449 	23137 
661.32 	0.0039449 	23304 
661.82 	0.0039449 	23304 
662.32 	0.0039449 	23470 
662.82 	0.0039449 	23304 
663.32 	0.0039449 	23304 
663.82 	0.0039449 	23304 
664.32 	0.0039449 	23304 
664.82 	0.0039449 	23304 
665.32 	0.0039449 	23304 
665.82 	0.0039449 	23304 
666.32 	0.0039449 	23304 
666.82 	0.0039449 	23137 
667.32 	0.0039449 	23304 
667.82 	0.0039449 	23470 
668.32 	0.0039449 	23304 
668.82 	0.0039449 	23304 
669.32 	0.0039449 	23304 
669.82 	0.0039449 	23304 
670.32 	0.0039449 	23304 
670.82 	0.0039449 	23304 
671.32 	0.0039449 	23470 
671.82 	0.0039449 	23304 
672.32 	0.0039449 	23304 
672.82 	0.0039449 	23137 
673.32 	0.0039449 	23304 
673.82 	0.0039449 	23304 
674.32 	0.0039449 	23470 
674.82 	0.0039449 	23304 
675.32 	0.0039449 	23304 
675.82 	0.0039449 	23304 
676.32 	0.0039449 	23304 
676.82 	0.0039449 	23304 
677.32 	0.0039449 	23470 
677.82 	0.0039449 	23304 
678.32 	0.0039449 	23304 
678.82 	0.0039449 	23137 
679.32 	0.0039449 	23304 
679.82 	0.0039449 	23304 
680.32 	0.0039449 	23304 
680.82 	0.0039449 	23304 
681.32 	0.0039449 	23304 
681.82 	0.0039449 	23304 
682.32 	0.0039449 	23304 
682.82 	0.0039449 	23304 
683.32 	0.0039449 	23304 
683.82 	0.0039449 	23304 
684.32 	0.0039449 	23304 
684.82 	0.0039449 	23304 
685.32 	0.0039449 	23470 
685.82 	0.0039449 	23137 
686.32 	0.0039449 	23304 
686.82 	0.0039449 	23304 
687.32 	0.0039449 	23304 
687.82 	0.0039449 	23304 
688.32 	0.0039449 	23304 
688.82 	0.0039449 	23304 
689.32 	0.0039449 	23470 
689.82 	0.0039449 	23470 
690.32 	0.0039449 	23470 
690.82 	0.0039449 	23304 
691.32 	0.0039449 	23304 
691.82 	0.0039449 	23304 
692.32 	0.0039449 	23304 
692.82 	0.0039449 	23304 
693.32 	0.0039449 	23304 
693.82 	0.0039449 	23304 
694.32 	0.0039449 	23304 
694.82 	0.0039449 	23304 
695.32 	0.0039449 	23304 
695.82 	0.0039449 	23304 
696.32 	0.0039449 	23304 
696.82 	0.0039449 	23304 
697.32 	0.0039449 	23304 
697.82 	0.0039449 	23304 
698.32 	0.0039449 	23304 
698.82 	0.0039449 	23304 
699.32 	0.0039449 	23803 
699.72 	0.0039449 	24469 
700.22 	0.0039449 	24802 
700.72 	0.0039449 	25301 
701.22 	0.0039449 	25801 
701.72 	0.0039449 	26300 
702.18 	0.0039449 	26966 
702.68 	0.0039449 	27465 
703.18 	0.0039449 	27965 
703.68 	0.0039449 	28464 
704.18 	0.0039449 	28963 
704.68 	0.0039449 	29463 
705.18 	0.0039449 	29962 
705.68 	0.0039449 	30462 
706.18 	0.0039449 	30961 
706.65 	0.0039449 	31627 
707.15 	0.0039449 	32126 
707.65 	0.0039449 	32459 
708.15 	0.0039449 	32958 
708.63 	0.0039449 	33624 
709.13 	0.0039449 	33957 
709.63 	0.0039449 	34457 
710.13 	0.0039449 	34956 
710.63 	0.0039449 	35455 
711.13 	0.0039449 	35955 
711.60 	0.0039449 	36620 
712.10 	0.0039449 	37120 
712.60 	0.0039449 	37619 
713.05 	0.0039449 	38285 
713.48 	0.0039449 	38951 
713.98 	0.0039449 	39450 
714.48 	0.0039449 	39950 
714.97 	0.0039449 	40615 
715.47 	0.0039449 	41115 
715.97 	0.0039449 	41614 
716.47 	0.0039449 	42114 
716.97 	0.0039449 	42613 
717.47 	0.0039449 	43279 
717.97 	0.0039449 	43778 
718.47 	0.0039449 	44278 
718.97 	0.0039449 	44777 
719.47 	0.0039449 	45276 
719.93 	0.0039449 	45942 
720.43 	0.0039449 	46441 
720.93 	0.0039449 	46774 
721.33 	0.0039449 	47440 
721.83 	0.0039449 	47940 
722.33 	0.0039449 	48272 
722.73 	0.0039449 	48938 
723.23 	0.0039449 	49438 
723.73 	0.0039449 	49937 
724.23 	0.0039449 	50436 
724.73 	0.0039449 	50936 
725.22 	0.0039449 	51602 
725.72 	0.0039449 	51935 
726.17 	0.0039449 	52600 
726.67 	0.0039449 	52933 
727.15 	0.0039449 	53599 
727.65 	0.0039449 	54098 
728.15 	0.0039449 	54598 
728.65 	0.0039449 	55097 
729.15 	0.0039449 	55597 
729.62 	0.0039449 	56262 
730.12 	0.0039449 	56762 
730.62 	0.0039449 	57095 
731.10 	0.0039449 	57761 
731.60 	0.0039449 	58260 
732.10 	0.0039449 	58759 
732.60 	0.0039449 	59259 
733.10 	0.0039449 	59924 
733.60 	0.0039449 	60424 
734.10 	0.0039449 	60923 
734.60 	0.0039449 	61423 
735.10 	0.0039449 	61922 
735.60 	0.0039449 	62421 
736.07 	0.0039449 	63087 
736.57 	0.0039449 	63420 
737.00 	0.0039449 	64086 
737.50 	0.0039449 	64585 
738.00 	0.0039449 	65085 
738.50 	0.0039449 	65584 
739.00 	0.0039449 	66083 
739.47 	0.0039449 	66749 
739.97 	0.0039449 	67082 
740.43 	0.0039449 	67748 
740.93 	0.0039449 	68247 
741.43 	0.0039449 	68747 
741.93 	0.0039449 	69246 
742.43 	0.0039449 	69745 
742.93 	0.0039449 	70245 
743.43 	0.0039449 	70911 
743.93 	0.0039449 	71410 
744.43 	0.0039449 	71909 
744.93 	0.0039449 	72409 
745.43 	0.0039449 	72908 
745.92 	0.0039449 	73574 
746.42 	0.0039449 	74073 
746.92 	0.0039449 	74573 
747.42 	0.0039449 	75072 
747.92 	0.0039449 	75571 
748.42 	0.0039449 	76071 
748.87 	0.0039449 	76737 
749.37 	0.0039449 	77069 
749.85 	0.0039449 	77735 
750.35 	0.0039449 	78235 
750.85 	0.0039449 	78734 
751.35 	0.0039449 	79233 
751.85 	0.0039449 	79899 
752.35 	0.0039449 	80232 
752.82 	0.0039449 	80898 
753.32 	0.0039449 	81397 
753.82 	0.0039449 	81730 
754.22 	0.0039449 	82396 
754.72 	0.0039449 	82895 
755.22 	0.0039449 	83395 
755.72 	0.0039449 	83894 
756.22 	0.0039449 	84394 
756.72 	0.0039449 	84893 
757.20 	0.0039449 	85559 
757.70 	0.0039449 	85892 
758.13 	0.0039449 	86558 
758.63 	0.0039449 	86890 
759.10 	0.0039449 	87556 
759.60 	0.0039449 	87889 
760.00 	0.0039449 	88555 
760.50 	0.0039449 	89054 
761.00 	0.0039449 	89387 
761.40 	0.0039449 	90053 
761.90 	0.0039449 	90386 
762.32 	0.0039449 	91052 
762.82 	0.0039449 	91551 
763.32 	0.0039449 	91884 
763.77 	0.0039449 	92550 
764.27 	0.0039449 	93049 
764.77 	0.0039449 	93549 
765.27 	0.0039449 	94048 
765.77 	0.0039449 	94547 
766.27 	0.0039449 	95047 
766.75 	0.0039449 	95713 
767.25 	0.0039449 	96212 
767.75 	0.0039449 	96711 
768.25 	0.0039449 	97211 
768.75 	0.0039449 	97710 
769.25 	0.0039449 	98209 
769.67 	0.0039449 	98875 
770.17 	0.0039449 	99208 
770.60 	0.0039449 	99874 
771.10 	0.0039449 	100210 
771.60 	0.0039449 	100870 
772.10 	0.0039449 	101370 
772.60 	0.0039449 	101710 
773.03 	0.0039449 	102370 
773.53 	0.0039449 	102700 
773.90 	0.0039449 	103370 
774.40 	0.0039449 	103700 
774.90 	0.0039449 	104370 
775.40 	0.0039449 	104870 
775.90 	0.0039449 	105200 
776.32 	0.0039449 	105870 
776.82 	0.0039449 	106200 
777.23 	0.0039449 	106870 
777.73 	0.0039449 	107200 
778.18 	0.0039449 	107860 
778.68 	0.0039449 	108360 
779.18 	0.0039449 	108860 
779.68 	0.0039449 	109360 
780.18 	0.0039449 	109860 
780.68 	0.0039449 	110530 
781.18 	0.0039449 	110860 
781.60 	0.0039449 	111530 
782.10 	0.0039449 	112030 
782.60 	0.0039449 	112520 
783.10 	0.0039449 	113020 
783.60 	0.0039449 	113520 
784.10 	0.0039449 	114020 
784.60 	0.0039449 	114520 
785.07 	0.0039449 	115190 
785.57 	0.0039449 	115690 
786.07 	0.0039449 	116190 
786.57 	0.0039449 	116520 
786.97 	0.0039449 	117190 
787.47 	0.0039449 	117520 
787.90 	0.0039449 	118180 
788.40 	0.0039449 	118680 
788.90 	0.0039449 	119180 
789.40 	0.0039449 	119680 
789.90 	0.0039449 	120180 
790.40 	0.0039449 	120680 
790.83 	0.0039449 	121350 
791.33 	0.0039449 	121680 
791.83 	0.0039449 	122350 
792.33 	0.0039449 	122850 
792.83 	0.0039449 	123340 
793.33 	0.0039449 	123840 
793.83 	0.0039449 	124340 
794.32 	0.0039449 	125010 
794.82 	0.0039449 	125510 
795.32 	0.0039449 	126010 
795.82 	0.0039449 	126510 
796.32 	0.0039449 	127010 
796.80 	0.0039449 	127670 
797.30 	0.0039449 	128010 
797.80 	0.0039449 	128500 
798.30 	0.0039449 	129170 
798.80 	0.0039449 	129670 
799.30 	0.0039449 	130170 
799.80 	0.0039449 	130670 
800.30 	0.0039449 	131330 
800.80 	0.0039449 	131670 
801.30 	0.0039449 	132330 
801.80 	0.0039449 	132830 
802.30 	0.0039449 	133330 
802.80 	0.0039449 	134000 
803.30 	0.0039449 	134500 
803.80 	0.0039449 	135000 
804.30 	0.0039449 	135500 
804.80 	0.0039449 	136000 
805.30 	0.0039449 	136490 
805.80 	0.0039449 	137160 
806.30 	0.0039449 	137660 
806.80 	0.0039449 	138160 
807.30 	0.0039449 	138660 
807.80 	0.0039449 	139160 
808.30 	0.0039449 	139820 
808.80 	0.0039449 	140320 
809.30 	0.0039449 	140820 
809.80 	0.0039449 	141490 
810.30 	0.0039449 	141820 
810.80 	0.0039449 	142490 
811.30 	0.0039449 	142990 
811.80 	0.0039449 	143490 
812.30 	0.0039449 	143990 
812.80 	0.0039449 	144480 
813.30 	0.0039449 	145150 
813.80 	0.0039449 	145650 
814.30 	0.0039449 	146150 
814.80 	0.0039449 	146650 
815.30 	0.0039449 	147310 
815.80 	0.0039449 	147650 
816.30 	0.0039449 	148310 
816.80 	0.0039449 	148810 
817.30 	0.0039449 	149310 
817.80 	0.0039449 	149810 
818.30 	0.0039449 	150310 
818.80 	0.0039449 	150810 
819.30 	0.0039449 	151480 
819.80 	0.0039449 	151980 
820.30 	0.0039449 	152470 
820.80 	0.0039449 	153140 
821.30 	0.0039449 	153640 
821.80 	0.0039449 	154140 
822.30 	0.0039449 	154640 
822.80 	0.0039449 	155140 
823.30 	0.0039449 	155640 
823.80 	0.0039449 	156140 
824.30 	0.0039449 	156800 
824.80 	0.0039449 	157300 
825.30 	0.0039449 	157800 
825.80 	0.0039449 	158300 
826.30 	0.0039449 	158800 
826.80 	0.0039449 	159300 
827.30 	0.0039449 	159960 
827.80 	0.0039449 	160460 
828.30 	0.0039449 	160960 
828.80 	0.0039449 	161460 
829.30 	0.0039449 	161960 
829.80 	0.0039449 	162790 
830.30 	0.0039449 	163130 
830.80 	0.0039449 	163630 
831.30 	0.0039449 	164290 
831.80 	0.0039449 	164630 
832.30 	0.0039449 	165130 
832.80 	0.0039449 	165790 
833.30 	0.0039449 	166290 
833.80 	0.0039449 	166790 
834.30 	0.0039449 	167290 
834.80 	0.0039449 	167950 
835.30 	0.0039449 	168450 
835.80 	0.0039449 	168790 
836.30 	0.0039449 	169620 
836.80 	0.0039449 	169950 
837.30 	0.0039449 	170450 
837.80 	0.0039449 	171120 
838.30 	0.0039449 	171620 
838.80 	0.0039449 	172120 
839.30 	0.0039449 	172780 
839.80 	0.0039449 	173280 
840.30 	0.0039449 	173780 
840.80 	0.0039449 	174280 
841.30 	0.0039449 	174780 
841.80 	0.0039449 	175280 
842.30 	0.0039449 	175940 
842.80 	0.0039449 	176440 
843.30 	0.0039449 	176940 
843.80 	0.0039449 	177440 
844.30 	0.0039449 	177940 
844.80 	0.0039449 	178610 
845.30 	0.0039449 	179110 
845.80 	0.0039449 	179440 
846.30 	0.0039449 	180110 
846.80 	0.0039449 	180770 
847.30 	0.0039449 	181100 
847.80 	0.0039449 	181600 
848.30 	0.0039449 	182270 
848.80 	0.0039449 	182770 
849.30 	0.0039449 	183440 
849.80 	0.0039449 	183770 
850.30 	0.0039449 	184430 
850.80 	0.0039449 	184930 
851.30 	0.0039449 	185430 
851.80 	0.0039449 	185930 
852.30 	0.0039449 	186430 
852.80 	0.0039449 	186930 
853.30 	0.0039449 	187600 
853.80 	0.0039449 	188100 
854.30 	0.0039449 	188600 
854.80 	0.0039449 	189090 
855.30 	0.0039449 	189590 
855.80 	0.0039449 	190260 
856.30 	0.0039449 	190760 
856.80 	0.0039449 	191260 
857.30 	0.0039449 	191760 
857.80 	0.0039449 	192420 
858.30 	0.0039449 	192920 
858.80 	0.0039449 	193420 
859.30 	0.0039449 	193920 
859.80 	0.0039449 	194420 
860.30 	0.0039449 	195090 
860.80 	0.0039449 	195420 
861.30 	0.0039449 	196090 
861.80 	0.0039449 	196590 
862.30 	0.0039449 	197080 
862.80 	0.0039449 	197580 
863.30 	0.0039449 	198250 
863.80 	0.0039449 	198580 
864.30 	0.0039449 	199250 
864.80 	0.0039449 	199750 
865.30 	0.0039449 	200250 
865.80 	0.0039449 	200750 
866.30 	0.0039449 	201250 
866.80 	0.0039449 	201910 
867.30 	0.0039449 	202410 
867.80 	0.0039449 	202910 
868.30 	0.0039449 	203410 
868.80 	0.0039449 	204080 
869.30 	0.0039449 	204580 
869.80 	0.0039449 	205070 
870.30 	0.0039449 	205570 
870.80 	0.0039449 	206070 
871.30 	0.0039449 	206570 
871.80 	0.0039449 	207240 
872.30 	0.0039449 	207740 
872.80 	0.0039449 	208240 
873.30 	0.0039449 	208740 
873.80 	0.0039449 	209240 
874.30 	0.0039449 	209900 
874.80 	0.0039449 	210400 
875.30 	0.0039449 	210900 
875.80 	0.0039449 	211400 
876.30 	0.0039449 	211900 
876.80 	0.0039449 	212400 
877.30 	0.0039449 	213060 
877.80 	0.0039449 	213560 
878.30 	0.0039449 	214060 
878.80 	0.0039449 	214560 
879.30 	0.0039449 	215060 
879.80 	0.0039449 	215730 
880.30 	0.0039449 	216060 
880.80 	0.0039449 	216730 
881.30 	0.0039449 	217230 
881.80 	0.0039449 	217730 
882.30 	0.0039449 	218390 
882.80 	0.0039449 	218890 
883.30 	0.0039449 	219390 
883.80 	0.0039449 	220060 
884.30 	0.0039449 	220560 
884.80 	0.0039449 	221050 
885.30 	0.0039449 	221550 
885.80 	0.0039449 	222050 
886.30 	0.0039449 	222550 
886.80 	0.0039449 	223050 
887.30 	0.0039449 	223550 
887.80 	0.0039449 	224220 
888.30 	0.0039449 	224720 
888.80 	0.0039449 	225220 
889.30 	0.0039449 	225720 
889.80 	0.0039449 	226210 
890.30 	0.0039449 	226880 
890.80 	0.0039449 	227380 
891.30 	0.0039449 	227880 
891.80 	0.0039449 	228380 
892.30 	0.0039449 	228880 
892.80 	0.0039449 	229380 
893.30 	0.0039449 	230040 
893.80 	0.0039449 	230540 
894.30 	0.0039449 	231040 
894.80 	0.0039449 	231540 
895.30 	0.0039449 	232210 
895.80 	0.0039449 	232710 
896.30 	0.0039449 	233210 
896.80 	0.0039449 	233710 
897.30 	0.0039449 	234200 
897.80 	0.0039449 	234870 
898.30 	0.0039449 	235200 
898.80 	0.0039449 	235870 
899.30 	0.0039449 	236370 
899.80 	0.0039449 	237030 
900.30 	0.0039449 	237370 
900.80 	0.0039449 	238030 
901.30 	0.0039449 	238530 
901.80 	0.0039449 	239030 
902.30 	0.0039449 	239530 
902.80 	0.0039449 	240030 
903.30 	0.0039449 	240700 
903.80 	0.0039449 	241200 
904.30 	0.0039449 	241700 
904.80 	0.0039449 	242190 
905.30 	0.0039449 	242690 
905.80 	0.0039449 	243360 
906.30 	0.0039449 	243860 
906.80 	0.0039449 	244360 
907.30 	0.0039449 	244860 
907.80 	0.0039449 	245360 
908.30 	0.0039449 	246020 
908.80 	0.0039449 	246520 
909.30 	0.0039449 	247020 
909.80 	0.0039449 	247520 
910.30 	0.0039449 	248020 
910.80 	0.0039449 	248520 
911.30 	0.0039449 	249020 
911.80 	0.0039449 	249690 
912.30 	0.0039449 	250180 
912.80 	0.0039449 	250680 
913.30 	0.0039449 	251350 
913.80 	0.0039449 	251850 
914.30 	0.0039449 	252180 
914.80 	0.0039449 	252850 
915.30 	0.0039449 	253350 
915.80 	0.0039449 	253850 
916.30 	0.0039449 	254350 
916.80 	0.0039449 	255010 
917.30 	0.0039449 	255510 
917.80 	0.0039449 	256010 
918.30 	0.0039449 	256510 
918.80 	0.0039449 	257180 
919.30 	0.0039449 	257680 
919.80 	0.0039449 	258170 
920.30 	0.0039449 	258670 
920.80 	0.0039449 	259340 
921.30 	0.0039449 	259840 
921.80 	0.0039449 	260340 
922.30 	0.0039449 	260670 
922.80 	0.0039449 	261340 
923.30 	0.0039449 	261840 
923.80 	0.0039449 	262340 
924.30 	0.0039449 	263000 
924.80 	0.0039449 	263330 
925.30 	0.0039449 	264000 
925.80 	0.0039449 	264500 
926.30 	0.0039449 	265000 
926.35 	0.0039449 	262340 
926.37 	0.0039449 	254850 
926.38 	0.0039449 	251020 
926.40 	0.0039449 	253850 
926.42 	0.0039449 	256180 
926.57 	0.0039449 	258510 
926.65 	0.0039449 	260670 
926.75 	0.0039449 	262670 
926.92 	0.0039449 	264670 
927.42 	0.0039449 	266160 
927.92 	0.0039449 	266660 
928.42 	0.0039449 	267160 
928.92 	0.0039449 	267830 
929.42 	0.0039449 	268330 
929.92 	0.0039449 	268830 
930.42 	0.0039449 	269330 
930.92 	0.0039449 	269990 
931.42 	0.0039449 	270490 
931.92 	0.0039449 	270990 
932.42 	0.0039449 	271660 
932.92 	0.0039449 	272160 
933.42 	0.0039449 	272660 
933.92 	0.0039449 	273160 
934.42 	0.0039449 	273650 
934.92 	0.0039449 	274150 
935.42 	0.0039449 	274650 
935.92 	0.0039449 	275320 
936.42 	0.0039449 	275820 
936.92 	0.0039449 	276320 
937.42 	0.0039449 	276980 
937.92 	0.0039449 	277320 
938.42 	0.0039449 	277820 
938.92 	0.0039449 	278480 
939.42 	0.0039449 	278980 
939.92 	0.0039449 	279480 
940.42 	0.0039449 	279980 
940.92 	0.0039449 	280650 
941.42 	0.0039449 	281150 
941.92 	0.0039449 	281640 
942.42 	0.0039449 	282140 
942.92 	0.0039449 	282810 
943.42 	0.0039449 	283140 
943.92 	0.0039449 	283640 
944.42 	0.0039449 	284140 
944.92 	0.0039449 	284810 
945.42 	0.0039449 	285310 
945.92 	0.0039449 	285810 
946.42 	0.0039449 	286310 
946.92 	0.0039449 	286640 
947.42 	0.0039449 	286640 
947.92 	0.0039449 	287640 
948.32 	0.0039449 	282810 
948.33 	0.0039449 	280810 
948.37 	0.0039449 	282810 
948.52 	0.0039449 	284810 
948.68 	0.0039449 	286810 
949.18 	0.0039449 	288800 
949.38 	0.0039449 	285810 
949.67 	0.0039449 	287800 
949.98 	0.0039449 	284970 
950.00 	0.0039449 	280310 
950.10 	0.0039449 	282480 
950.18 	0.0039449 	278150 
950.32 	0.0039449 	280310 
950.37 	0.0039449 	277980 
950.38 	0.0039449 	274150 
950.43 	0.0039449 	276480 
950.57 	0.0039449 	278820 
950.65 	0.0039449 	281150 
950.75 	0.0039449 	283140 
950.85 	0.0039449 	285140 
950.98 	0.0039449 	287140 
951.05 	0.0039449 	279150 
951.07 	0.0039449 	273820 
951.10 	0.0039449 	276980 
951.17 	0.0039449 	279150 
951.25 	0.0039449 	281150 
951.28 	0.0039449 	277820 
951.30 	0.0039449 	274490 
951.32 	0.0039449 	268000 
951.33 	0.0039449 	187760 
