Tempo(s)	Deformação(mm)	Força(N)
0.016667 	-0.0001068 	1165.2 
0.51667 	-0.0001068 	1165.2 
1.0167 	-0.0001068 	1498.1 
1.5167 	-0.0002136 	1664.6 
2.0167 	-0.0002136 	1664.6 
2.5167 	-0.0002136 	1664.6 
3.0167 	-0.0003204 	1831.0 
3.5167 	-0.0005341 	1997.5 
4.0167 	-0.0004273 	2330.4 
4.2833 	0.00000 	2829.8 
4.5667 	0.00031985 	3495.6 
4.7333 	0.00074633 	3662.0 
5.0500 	0.0011728 	4161.4 
5.3667 	0.0015993 	4494.3 
5.6500 	0.0020257 	4993.7 
6.0000 	0.0024522 	5326.6 
6.3167 	0.0022390 	5992.4 
6.3333 	0.00021324 	5826.0 
6.5833 	0.00063971 	6158.9 
6.8333 	0.0010662 	6325.4 
7.1000 	0.0014927 	6824.7 
7.2667 	0.0019191 	7157.6 
7.5167 	0.0023456 	7324.1 
7.8167 	0.0027721 	7823.5 
8.0500 	0.0031985 	7989.9 
8.3000 	0.0036250 	8489.3 
8.5500 	0.0040515 	8655.8 
8.8167 	0.0044780 	9155.1 
9.0667 	0.0049044 	9321.6 
9.3000 	0.0053309 	9654.5 
9.5833 	0.0057574 	9820.9 
9.9500 	0.0060772 	10487 
10.217 	0.0065037 	10653 
10.483 	0.0069302 	10986 
10.783 	0.0073566 	11153 
11.083 	0.0077831 	11652 
11.350 	0.0082096 	11818 
11.617 	0.0086361 	12151 
11.933 	0.0090625 	12484 
12.267 	0.0094890 	12817 
12.567 	0.0099155 	13150 
12.850 	0.010342 	13483 
13.217 	0.010768 	13816 
13.600 	0.011195 	14149 
14.017 	0.011621 	14482 
14.417 	0.012048 	14815 
14.833 	0.012474 	15148 
15.133 	0.012901 	15480 
15.367 	0.013327 	15813 
15.600 	0.013754 	16146 
15.833 	0.014180 	16479 
16.050 	0.014607 	16812 
16.333 	0.015033 	17145 
16.617 	0.015460 	17478 
16.867 	0.015886 	17811 
17.117 	0.016313 	17977 
17.383 	0.016739 	18310 
17.617 	0.017166 	18643 
17.817 	0.017592 	18810 
18.067 	0.018018 	18976 
18.333 	0.018445 	19475 
18.550 	0.018871 	19642 
18.833 	0.019298 	19975 
19.333 	0.019618 	20308 
19.833 	0.019938 	20641 
20.333 	0.020151 	20807 
20.833 	0.020257 	20974 
21.333 	0.020364 	20974 
21.833 	0.020364 	21140 
22.333 	0.020471 	21140 
22.833 	0.020577 	21140 
23.333 	0.020577 	21140 
23.833 	0.020471 	21140 
24.333 	0.020471 	21140 
24.833 	0.020471 	21140 
25.333 	0.020577 	21140 
25.833 	0.020577 	21140 
26.333 	0.020577 	21140 
26.833 	0.020471 	21140 
27.333 	0.020471 	21140 
27.833 	0.020471 	21140 
28.333 	0.020471 	21140 
28.833 	0.020577 	21140 
29.333 	0.020577 	21140 
29.833 	0.020577 	21140 
30.333 	0.020471 	20974 
30.833 	0.020471 	20974 
31.333 	0.020471 	20974 
31.833 	0.020577 	21306 
32.333 	0.020577 	21140 
32.833 	0.020577 	21140 
33.333 	0.020471 	21140 
33.833 	0.020577 	20974 
34.333 	0.020471 	20974 
34.833 	0.020577 	21140 
35.333 	0.020577 	21140 
35.833 	0.020577 	20974 
36.333 	0.020577 	21140 
36.833 	0.020577 	21140 
37.333 	0.020577 	21140 
37.833 	0.020577 	21140 
38.333 	0.020577 	21140 
38.833 	0.020471 	21140 
39.333 	0.020471 	21140 
39.833 	0.020577 	20974 
40.333 	0.020577 	21140 
40.833 	0.020577 	21140 
41.333 	0.020471 	21140 
41.833 	0.020471 	21140 
42.333 	0.020471 	21140 
42.833 	0.020471 	21140 
43.333 	0.020577 	21140 
43.833 	0.020577 	21140 
44.333 	0.020577 	21140 
44.833 	0.020577 	21140 
45.333 	0.020471 	21140 
45.833 	0.020471 	21140 
46.333 	0.020471 	21140 
46.833 	0.020471 	21140 
47.333 	0.020471 	21140 
47.833 	0.020471 	21140 
48.333 	0.020471 	21140 
48.833 	0.020471 	21140 
49.333 	0.020364 	21140 
49.833 	0.020471 	21140 
50.333 	0.020577 	21140 
50.833 	0.020471 	21140 
51.333 	0.020471 	21140 
51.833 	0.020471 	21140 
52.333 	0.020364 	21140 
52.833 	0.020471 	21140 
53.333 	0.020471 	21140 
53.833 	0.020471 	21140 
54.333 	0.020364 	21140 
54.833 	0.020364 	21140 
55.333 	0.020364 	21140 
55.833 	0.020471 	21140 
56.333 	0.020364 	21140 
56.833 	0.020364 	21140 
57.333 	0.020364 	21140 
57.833 	0.020364 	21140 
58.333 	0.020471 	21140 
58.833 	0.020364 	21140 
59.333 	0.020364 	21140 
59.833 	0.020364 	21140 
60.333 	0.020364 	20974 
60.833 	0.020364 	21140 
61.333 	0.020364 	21140 
61.833 	0.020364 	21140 
62.333 	0.020364 	21140 
62.833 	0.020364 	21140 
63.333 	0.020257 	21140 
63.833 	0.020257 	21140 
64.333 	0.020364 	21140 
64.833 	0.020257 	21306 
65.333 	0.020257 	21140 
65.833 	0.020257 	21140 
66.333 	0.020151 	21140 
66.833 	0.020257 	21140 
67.333 	0.020151 	21140 
67.833 	0.020151 	21140 
68.333 	0.020044 	21140 
68.833 	0.020151 	21140 
69.333 	0.020044 	21140 
69.833 	0.020151 	21140 
70.333 	0.020151 	21140 
70.833 	0.020151 	21140 
71.333 	0.020044 	20974 
71.833 	0.020044 	21140 
72.333 	0.020044 	21140 
72.833 	0.020044 	21140 
73.333 	0.020044 	21140 
73.833 	0.020044 	21140 
74.333 	0.020044 	21140 
74.833 	0.020044 	21140 
75.333 	0.020044 	21306 
75.833 	0.020044 	21140 
76.333 	0.020044 	21140 
76.833 	0.020044 	21140 
77.333 	0.019938 	20974 
77.833 	0.019938 	21140 
78.333 	0.020044 	21306 
78.833 	0.020044 	21140 
79.333 	0.019938 	21140 
79.833 	0.019831 	20974 
80.333 	0.019511 	20641 
80.750 	0.019085 	20308 
81.183 	0.018658 	19808 
81.600 	0.018232 	19475 
81.950 	0.017805 	19143 
82.333 	0.017379 	18810 
82.683 	0.016952 	18477 
83.017 	0.016526 	17977 
83.450 	0.016099 	17478 
83.833 	0.015673 	17312 
84.267 	0.015246 	16979 
84.767 	0.014927 	16479 
85.183 	0.014500 	16146 
85.600 	0.014074 	15813 
86.000 	0.013647 	15480 
86.283 	0.013221 	14981 
86.500 	0.012794 	14648 
86.750 	0.012368 	14482 
87.100 	0.011941 	13982 
87.367 	0.011515 	13649 
87.683 	0.011088 	13317 
88.033 	0.010662 	12984 
88.367 	0.010235 	12651 
88.633 	0.0098089 	12318 
88.967 	0.0093824 	11985 
89.250 	0.0089559 	11652 
89.533 	0.0085294 	11319 
89.817 	0.0081030 	11153 
90.133 	0.0076765 	10653 
90.400 	0.0072500 	10487 
90.733 	0.0068236 	10320 
91.083 	0.0063971 	9820.9 
91.383 	0.0059706 	9488.0 
91.733 	0.0055441 	9155.1 
92.117 	0.0051177 	8822.2 
92.483 	0.0046912 	8322.8 
92.967 	0.0049044 	7657.0 
93.300 	0.0044780 	7657.0 
93.633 	0.0041581 	6991.2 
94.133 	0.0038383 	6824.7 
94.317 	0.0042647 	6658.3 
94.683 	0.0042647 	5992.4 
94.983 	0.0046912 	5659.5 
95.100 	0.0051177 	5826.0 
95.333 	0.0046912 	5659.5 
95.500 	0.0042647 	5326.6 
95.717 	0.0038383 	5160.2 
96.117 	0.0036250 	4494.3 
96.317 	0.0041581 	4660.8 
96.400 	0.0045846 	4494.3 
96.450 	0.0050111 	4494.3 
96.700 	0.0054375 	4161.4 
96.867 	0.0050111 	3995.0 
96.950 	0.0045846 	3995.0 
97.083 	0.0041581 	3828.5 
97.183 	0.0036250 	3662.0 
97.300 	0.0030919 	3495.6 
97.450 	0.0026655 	3495.6 
97.583 	0.0022390 	3495.6 
97.800 	0.0018125 	2996.2 
97.933 	0.0013860 	2996.2 
98.183 	0.00095956 	2663.3 
98.433 	0.00042647 	2496.9 
98.933 	0.00053309 	2163.9 
99.317 	0.00010662 	2163.9 
99.817 	-0.0003204 	2163.9 
100.32 	-0.0003204 	1997.5 
100.82 	-0.0006409 	1831.0 
101.32 	-0.0008546 	1664.6 
101.82 	-0.0009614 	1664.6 
102.23 	-0.0013888 	1664.6 
102.65 	-0.0018161 	1498.1 
103.15 	-0.0019230 	1498.1 
103.65 	-0.0020298 	1498.1 
104.15 	-0.0021366 	1498.1 
104.65 	-0.0021366 	1331.7 
105.15 	-0.0022435 	1331.7 
105.65 	-0.0022435 	1331.7 
106.15 	-0.0022435 	1331.7 
106.65 	-0.0022435 	1331.7 
107.15 	-0.0021366 	1331.7 
107.65 	-0.0020298 	1331.7 
108.15 	-0.0018161 	1165.2 
108.65 	-0.0018161 	1165.2 
109.15 	-0.0018161 	1165.2 
109.65 	-0.0018161 	1331.7 
110.15 	-0.0018161 	1331.7 
110.65 	-0.0017093 	1165.2 
111.15 	-0.0017093 	1331.7 
111.65 	-0.0014956 	1331.7 
112.15 	-0.0011751 	1331.7 
112.45 	-0.0007478 	1165.2 
112.78 	-0.0003204 	1331.7 
113.05 	0.00010662 	1331.7 
113.30 	0.00053309 	1165.2 
113.42 	0.00095956 	1165.2 
113.62 	0.0013860 	1165.2 
113.90 	0.00095956 	1165.2 
114.40 	0.00063971 	1165.2 
114.90 	0.00053309 	1165.2 
115.40 	0.00053309 	1331.7 
115.90 	0.00074633 	1165.2 
116.40 	0.0010662 	1165.2 
116.73 	0.0014927 	1165.2 
117.07 	0.0020257 	1165.2 
117.12 	0.0010662 	1165.2 
117.18 	0.00063971 	1165.2 
117.68 	0.00063971 	1331.7 
118.18 	0.00063971 	1165.2 
118.48 	0.0010662 	1165.2 
118.73 	0.0014927 	1331.7 
118.85 	0.0019191 	1165.2 
118.97 	0.0023456 	1331.7 
119.10 	0.0027721 	1165.2 
119.17 	0.0031985 	1165.2 
119.27 	0.0036250 	1165.2 
119.37 	0.0040515 	1165.2 
119.45 	0.0044780 	1165.2 
119.57 	0.0049044 	1165.2 
119.67 	0.0053309 	1165.2 
119.85 	0.0057574 	1165.2 
120.07 	0.0061839 	1165.2 
120.38 	0.0066103 	1165.2 
120.65 	0.0070368 	1165.2 
120.70 	0.0074633 	1165.2 
120.72 	0.0078897 	1165.2 
120.73 	0.0098089 	1165.2 
120.75 	0.010982 	1165.2 
120.77 	0.010449 	1165.2 
120.78 	0.010022 	1165.2 
120.87 	0.0095956 	1165.2 
121.02 	0.010022 	1165.2 
121.07 	0.0094890 	1165.2 
121.08 	0.0087427 	1165.2 
121.17 	0.0075699 	1165.2 
121.18 	0.0062905 	1165.2 
121.20 	0.0058640 	1165.2 
121.32 	0.0062905 	1165.2 
121.82 	0.0061839 	1165.2 
122.02 	0.0057574 	1165.2 
122.17 	0.0053309 	1165.2 
122.67 	0.0055441 	1165.2 
122.87 	0.0059706 	1165.2 
123.07 	0.0063971 	1165.2 
123.17 	0.0068236 	1165.2 
123.20 	0.0073566 	1165.2 
123.28 	0.0077831 	1331.7 
123.38 	0.0082096 	1165.2 
123.45 	0.0077831 	1165.2 
123.87 	0.0082096 	1165.2 
124.03 	0.0077831 	1165.2 
124.05 	0.0071434 	1165.2 
124.08 	0.0067169 	1165.2 
124.58 	0.0068236 	1165.2 
124.78 	0.0073566 	1331.7 
124.97 	0.0077831 	1165.2 
125.30 	0.0082096 	1165.2 
125.75 	0.0086361 	1165.2 
125.87 	0.0090625 	1165.2 
125.93 	0.0094890 	1165.2 
125.98 	0.010129 	1165.2 
126.12 	0.010555 	1165.2 
126.18 	0.010982 	1165.2 
126.33 	0.010555 	1165.2 
126.40 	0.010982 	1165.2 
126.43 	0.011408 	1165.2 
126.63 	0.011835 	1331.7 
126.70 	0.012368 	1165.2 
126.72 	0.012794 	1165.2 
126.77 	0.012261 	1165.2 
126.82 	0.011835 	1165.2 
126.85 	0.011408 	1165.2 
126.93 	-0.0005341 	1165.2 
127.07 	-0.0011751 	1165.2 
127.10 	-0.0017093 	1165.2 
127.20 	-0.0021366 	1165.2 
127.42 	-0.0027776 	1165.2 
127.43 	-0.0032049 	1165.2 
127.52 	-0.0036323 	1165.2 
127.68 	-0.0040596 	1165.2 
127.85 	-0.0047006 	1165.2 
128.12 	-0.0051279 	1165.2 
128.15 	-0.0038459 	1165.2 
128.17 	-0.0001068 	1165.2 
128.63 	-0.0005341 	1165.2 
129.13 	-0.0007478 	1165.2 
129.32 	-0.0001068 	1165.2 
129.82 	-0.0002136 	1165.2 
130.32 	-0.0001068 	1165.2 
130.82 	0.00000 	1165.2 
131.32 	0.00000 	1165.2 
131.82 	-0.0001068 	1165.2 
132.32 	-0.0001068 	1165.2 
132.82 	0.00000 	1331.7 
133.32 	0.00000 	1165.2 
133.82 	0.00000 	1165.2 
134.32 	0.00010662 	1165.2 
134.82 	0.00021324 	1165.2 
135.32 	0.00010662 	1165.2 
135.82 	0.00021324 	1165.2 
136.32 	0.00042647 	1165.2 
136.82 	0.00053309 	1165.2 
137.32 	0.00063971 	1165.2 
137.73 	0.00010662 	1165.2 
138.22 	-0.0003204 	1165.2 
138.32 	-0.0007478 	1165.2 
138.82 	-0.0008546 	1165.2 
139.10 	-0.0001068 	1165.2 
139.30 	0.00042647 	1165.2 
139.70 	0.00085294 	1165.2 
140.00 	0.0012794 	1165.2 
140.15 	0.00000 	1165.2 
140.38 	0.00042647 	1165.2 
140.72 	0.00085294 	1165.2 
140.97 	0.0012794 	1165.2 
141.07 	0.00053309 	1165.2 
141.17 	0.00010662 	1165.2 
141.25 	-0.0003204 	1165.2 
141.32 	-0.0007478 	1165.2 
141.50 	-0.0011751 	1165.2 
141.60 	0.00000 	1165.2 
142.08 	-0.0004273 	1165.2 
142.48 	-0.0008546 	1165.2 
142.57 	-0.0012820 	1165.2 
142.75 	-0.0002136 	1165.2 
143.25 	-0.0004273 	1165.2 
143.37 	0.00000 	1165.2 
143.87 	-0.0001068 	1165.2 
144.37 	0.00000 	1165.2 
144.87 	-0.0001068 	1165.2 
145.37 	-0.0003204 	1165.2 
145.87 	-0.0004273 	1165.2 
145.93 	0.00000 	1165.2 
146.43 	-0.0001068 	1165.2 
146.93 	0.00000 	1165.2 
147.43 	0.00000 	1165.2 
147.93 	0.00000 	1165.2 
148.43 	-0.0001068 	1165.2 
148.93 	-0.0001068 	1165.2 
149.43 	0.00000 	1165.2 
149.93 	0.00000 	1165.2 
150.43 	0.00000 	1165.2 
150.93 	0.00000 	1165.2 
151.43 	0.00000 	1331.7 
151.93 	-0.0001068 	1165.2 
152.43 	-0.0002136 	1165.2 
152.93 	0.00000 	1165.2 
153.43 	-0.0001068 	1331.7 
153.93 	0.00000 	1165.2 
154.43 	0.00000 	998.74 
154.93 	0.00010662 	1165.2 
155.43 	0.00000 	1165.2 
155.93 	-0.0002136 	1165.2 
156.43 	-0.0002136 	1165.2 
156.93 	0.00000 	1165.2 
157.43 	0.00000 	1165.2 
157.93 	0.00000 	1165.2 
158.43 	0.00010662 	1165.2 
158.93 	0.00010662 	1165.2 
159.43 	0.00010662 	1165.2 
159.93 	0.00010662 	1165.2 
160.43 	0.00010662 	1165.2 
160.93 	0.00010662 	1165.2 
161.43 	0.00000 	1498.1 
161.93 	0.00010662 	1498.1 
162.43 	0.00010662 	1664.6 
162.93 	0.00000 	1831.0 
163.43 	-0.0001068 	1997.5 
163.93 	-0.0001068 	1997.5 
164.43 	-0.0004273 	2163.9 
164.93 	0.00000 	2663.3 
165.23 	0.00000 	3329.1 
165.62 	0.00021324 	3995.0 
166.00 	0.00031985 	4660.8 
166.50 	0.00010662 	5160.2 
166.92 	0.00000 	5826.0 
167.40 	0.00042647 	6325.4 
167.82 	0.00085294 	6824.7 
168.12 	0.0012794 	7324.1 
168.43 	0.0017059 	7823.5 
168.68 	0.0021324 	7823.5 
168.87 	0.0023456 	8489.3 
169.10 	0.0027721 	8489.3 
169.33 	0.0031985 	8822.2 
169.65 	0.0036250 	9155.1 
169.98 	0.0040515 	9488.0 
170.28 	0.0044780 	9820.9 
170.57 	0.0049044 	10320 
170.92 	0.0053309 	10653 
171.25 	0.0057574 	11153 
171.57 	0.0061839 	11486 
171.88 	0.0066103 	11652 
172.20 	0.0070368 	12151 
172.55 	0.0074633 	12484 
172.83 	0.0078897 	12651 
173.13 	0.0083162 	13150 
173.50 	0.0087427 	13483 
173.83 	0.0091692 	13816 
174.27 	0.0095956 	14149 
174.75 	0.010022 	14482 
175.20 	0.010449 	14981 
175.55 	0.010875 	15314 
175.83 	0.011302 	15647 
176.10 	0.011728 	15980 
176.38 	0.012154 	16479 
176.65 	0.012581 	16646 
176.93 	0.013007 	16979 
177.23 	0.013434 	17478 
177.55 	0.013860 	17811 
177.87 	0.014287 	18144 
178.15 	0.014713 	18477 
178.50 	0.015140 	18810 
178.85 	0.015566 	19143 
179.18 	0.015993 	19642 
179.52 	0.016419 	19975 
179.93 	0.016846 	20308 
180.42 	0.017272 	20641 
180.92 	0.017485 	20807 
181.42 	0.017592 	20974 
181.92 	0.017592 	20974 
182.42 	0.017699 	20974 
182.92 	0.017805 	21140 
183.42 	0.017805 	21140 
183.92 	0.017805 	20974 
184.42 	0.017912 	21140 
184.92 	0.017912 	21140 
185.42 	0.017912 	21140 
185.92 	0.018018 	21140 
186.42 	0.017912 	21140 
186.92 	0.017912 	21140 
187.42 	0.018018 	21140 
187.92 	0.017912 	21140 
188.42 	0.017912 	20974 
188.92 	0.018018 	21140 
189.42 	0.017912 	21140 
189.92 	0.018018 	21140 
190.42 	0.018018 	21140 
190.92 	0.018018 	21140 
191.42 	0.018125 	21140 
191.92 	0.018018 	21140 
192.42 	0.018018 	20974 
192.92 	0.017912 	21140 
193.42 	0.018018 	21140 
193.92 	0.018018 	21140 
194.42 	0.018018 	21140 
194.92 	0.018018 	21140 
195.42 	0.018018 	21140 
195.92 	0.018018 	21140 
196.42 	0.018018 	21140 
196.92 	0.018125 	21140 
197.42 	0.018018 	21140 
197.92 	0.018018 	21140 
198.42 	0.018018 	21140 
198.92 	0.017912 	21140 
199.42 	0.018018 	20974 
199.92 	0.018018 	21140 
200.42 	0.018018 	21140 
200.92 	0.018018 	21140 
201.42 	0.018018 	21140 
201.92 	0.018018 	21140 
202.42 	0.018018 	21140 
202.92 	0.018018 	21306 
203.42 	0.018018 	21140 
203.92 	0.018018 	21140 
204.42 	0.017912 	21140 
204.92 	0.017912 	21140 
205.42 	0.018018 	21140 
205.92 	0.018018 	21140 
206.42 	0.018018 	21306 
206.92 	0.018018 	20974 
207.42 	0.017912 	21140 
207.92 	0.018018 	21140 
208.42 	0.018018 	21140 
208.92 	0.018018 	21306 
209.42 	0.018018 	21140 
209.92 	0.018018 	21140 
210.42 	0.018018 	21140 
210.92 	0.018018 	21140 
211.42 	0.018125 	21306 
211.92 	0.018018 	21140 
212.42 	0.018018 	21140 
212.92 	0.018125 	21306 
213.42 	0.018125 	21306 
213.92 	0.018125 	21140 
214.42 	0.018018 	21140 
214.92 	0.018018 	20974 
215.42 	0.017912 	21140 
215.92 	0.018018 	21306 
216.42 	0.018125 	21140 
216.92 	0.018018 	21306 
217.42 	0.018018 	21140 
217.92 	0.018018 	21140 
218.42 	0.017912 	21140 
218.92 	0.018018 	21306 
219.42 	0.018018 	21140 
219.92 	0.018018 	21140 
220.42 	0.018018 	21140 
220.92 	0.018018 	21140 
221.42 	0.018018 	21140 
221.92 	0.018018 	21140 
222.42 	0.018018 	21140 
222.92 	0.017912 	21140 
223.42 	0.018018 	21140 
223.92 	0.018018 	21140 
224.42 	0.018018 	21140 
224.92 	0.018018 	21140 
225.42 	0.017912 	21140 
225.92 	0.018018 	21140 
226.42 	0.018018 	21140 
226.92 	0.018018 	21140 
227.42 	0.018018 	21140 
227.92 	0.018018 	21140 
228.42 	0.018018 	21140 
228.92 	0.018018 	21140 
229.42 	0.018018 	21140 
229.92 	0.018018 	21306 
230.42 	0.018018 	21140 
230.92 	0.017912 	20974 
231.42 	0.018018 	21140 
231.92 	0.017912 	20974 
232.42 	0.018018 	21140 
232.92 	0.018018 	21140 
233.42 	0.018018 	21140 
233.92 	0.018018 	20974 
234.42 	0.018018 	21140 
234.92 	0.018018 	21140 
235.42 	0.018018 	21140 
235.92 	0.018018 	21140 
236.42 	0.018018 	21140 
236.92 	0.018018 	21140 
237.42 	0.018018 	20974 
237.92 	0.017912 	21140 
238.42 	0.018018 	21140 
238.92 	0.018018 	21140 
239.42 	0.018018 	21140 
239.92 	0.018018 	21140 
240.42 	0.017912 	20974 
240.92 	0.017592 	20641 
241.30 	0.017166 	20308 
241.78 	0.016739 	19808 
242.18 	0.016313 	19475 
242.65 	0.015886 	18810 
243.03 	0.015460 	18643 
243.42 	0.015033 	18144 
243.75 	0.014607 	17811 
244.18 	0.014180 	17478 
244.63 	0.013754 	16979 
245.13 	0.013327 	16646 
245.63 	0.013007 	16313 
246.07 	0.012581 	15813 
246.50 	0.012154 	15314 
246.78 	0.011728 	14981 
247.08 	0.011302 	14482 
247.38 	0.010875 	14149 
247.72 	0.010449 	13816 
248.07 	0.010022 	13483 
248.42 	0.0095956 	12984 
248.78 	0.0091692 	12651 
249.20 	0.0087427 	12318 
249.57 	0.0083162 	11818 
250.00 	0.0078897 	11319 
250.50 	0.0074633 	10986 
250.93 	0.0070368 	10320 
251.35 	0.0066103 	9987.4 
251.85 	0.0061839 	9488.0 
252.20 	0.0057574 	9321.6 
252.55 	0.0054375 	8655.8 
252.92 	0.0050111 	8322.8 
253.23 	0.0045846 	7989.9 
253.65 	0.0041581 	7657.0 
254.10 	0.0040515 	6991.2 
254.60 	0.0041581 	6824.7 
254.90 	0.0037316 	6325.4 
255.30 	0.0033052 	5992.4 
255.73 	0.0028787 	5493.1 
256.23 	0.0025588 	4993.7 
256.62 	0.0029853 	4660.8 
257.12 	0.0029853 	4161.4 
257.52 	0.0025588 	3828.5 
257.57 	0.0021324 	3662.0 
257.63 	0.0017059 	3662.0 
258.13 	0.0015993 	3162.7 
258.33 	0.0020257 	2996.2 
258.37 	0.0025588 	2996.2 
258.43 	0.0030919 	2996.2 
258.48 	0.0037316 	2996.2 
258.95 	0.0033052 	2496.9 
259.42 	0.0028787 	2330.4 
259.57 	0.0024522 	2163.9 
259.83 	0.0020257 	2163.9 
260.33 	0.0017059 	2163.9 
260.83 	0.0018125 	1831.0 
261.33 	0.0015993 	1831.0 
261.83 	0.0015993 	1664.6 
262.33 	0.0014927 	1664.6 
262.83 	0.0015993 	1664.6 
263.33 	0.0017059 	1664.6 
263.83 	0.0019191 	1498.1 
264.23 	0.0023456 	1498.1 
264.73 	0.0024522 	1498.1 
265.23 	0.0024522 	1498.1 
265.73 	0.0027721 	1331.7 
266.23 	0.0029853 	1331.7 
266.73 	0.0033052 	1331.7 
267.23 	0.0036250 	1331.7 
267.73 	0.0035184 	1331.7 
268.23 	0.0035184 	1331.7 
268.73 	0.0038383 	1331.7 
268.93 	0.0033052 	1331.7 
268.98 	0.0028787 	1331.7 
269.08 	0.0024522 	1331.7 
269.58 	0.0022390 	1331.7 
270.08 	0.0023456 	1331.7 
270.58 	0.0023456 	1331.7 
271.05 	0.0027721 	1331.7 
271.55 	0.0029853 	1331.7 
272.05 	0.0029853 	1331.7 
272.55 	0.0029853 	1331.7 
273.05 	0.0027721 	1331.7 
273.33 	0.0023456 	1331.7 
273.83 	0.0021324 	1331.7 
274.33 	0.0020257 	1331.7 
274.83 	0.0020257 	1331.7 
275.22 	0.0024522 	1331.7 
275.53 	0.0028787 	1331.7 
276.03 	0.0028787 	1165.2 
276.53 	0.0028787 	1331.7 
277.03 	0.0027721 	1165.2 
277.53 	0.0027721 	1165.2 
278.03 	0.0027721 	1331.7 
278.53 	0.0027721 	1165.2 
279.02 	0.0023456 	1165.2 
279.52 	0.0022390 	1331.7 
280.02 	0.0020257 	1165.2 
280.52 	0.0020257 	1331.7 
281.02 	0.0019191 	1165.2 
281.52 	0.0019191 	1165.2 
282.02 	0.0020257 	1165.2 
282.52 	0.0022390 	1165.2 
283.02 	0.0023456 	1331.7 
283.52 	0.0026655 	1331.7 
284.02 	0.0028787 	1165.2 
284.52 	0.0030919 	1165.2 
285.02 	0.0033052 	1165.2 
285.52 	0.0036250 	1331.7 
286.02 	0.0039449 	1165.2 
286.52 	0.0038383 	1165.2 
287.02 	0.0038383 	1331.7 
287.52 	0.0038383 	1165.2 
288.02 	0.0038383 	1165.2 
288.52 	0.0039449 	1165.2 
289.02 	0.0038383 	1165.2 
289.52 	0.0038383 	1331.7 
290.02 	0.0038383 	1165.2 
290.52 	0.0038383 	1331.7 
291.02 	0.0038383 	1165.2 
291.52 	0.0038383 	1165.2 
292.02 	0.0036250 	1165.2 
292.48 	0.0031985 	1165.2 
292.98 	0.0031985 	1165.2 
293.48 	0.0031985 	1331.7 
293.98 	0.0030919 	1165.2 
294.48 	0.0031985 	1165.2 
294.98 	0.0031985 	1165.2 
295.48 	0.0031985 	998.74 
295.98 	0.0031985 	1165.2 
296.48 	0.0028787 	1165.2 
296.98 	0.0028787 	1165.2 
297.48 	0.0027721 	1165.2 
297.98 	0.0027721 	1165.2 
298.48 	0.0026655 	1165.2 
298.98 	0.0026655 	1165.2 
299.48 	0.0025588 	1165.2 
299.98 	0.0025588 	1165.2 
300.48 	0.0025588 	1165.2 
300.98 	0.0025588 	1165.2 
301.48 	0.0025588 	1165.2 
301.98 	0.0025588 	1331.7 
302.48 	0.0025588 	1331.7 
302.98 	0.0024522 	1165.2 
303.48 	0.0024522 	1165.2 
303.98 	0.0024522 	1165.2 
304.48 	0.0024522 	1165.2 
304.98 	0.0023456 	1165.2 
305.48 	0.0021324 	1165.2 
305.98 	0.0021324 	1165.2 
306.48 	0.0020257 	1165.2 
306.98 	0.0019191 	998.74 
307.48 	0.0019191 	1165.2 
307.98 	0.0018125 	1165.2 
308.48 	0.0015993 	1165.2 
308.98 	0.0014927 	1165.2 
309.48 	0.0013860 	1165.2 
309.98 	0.0012794 	1165.2 
310.48 	0.0010662 	1165.2 
310.98 	0.00085294 	1165.2 
311.48 	0.00074633 	1165.2 
311.98 	0.00063971 	1165.2 
312.48 	0.00053309 	1165.2 
312.98 	0.00042647 	1165.2 
313.48 	0.00031985 	1165.2 
313.98 	0.00031985 	1165.2 
314.48 	0.00021324 	1331.7 
314.98 	0.00021324 	1331.7 
315.48 	0.00000 	1165.2 
315.98 	0.00000 	1165.2 
316.48 	-0.0001068 	1165.2 
316.98 	-0.0003204 	1331.7 
317.48 	-0.0004273 	1165.2 
317.98 	-0.0005341 	1165.2 
318.48 	-0.0005341 	1165.2 
318.98 	-0.0004273 	1165.2 
319.48 	-0.0006409 	1165.2 
319.98 	-0.0006409 	1165.2 
320.48 	-0.0006409 	1165.2 
320.98 	-0.0007478 	1165.2 
321.48 	-0.0006409 	1165.2 
321.98 	-0.0006409 	1498.1 
322.48 	-0.0006409 	1664.6 
322.98 	-0.0007478 	1664.6 
323.48 	-0.0005341 	1831.0 
323.98 	-0.0007478 	1997.5 
324.48 	-0.0005341 	1997.5 
324.98 	-0.0007478 	2163.9 
325.48 	-0.0006409 	2330.4 
325.75 	-0.0002136 	2829.8 
326.07 	0.00021324 	3495.6 
326.30 	0.00063971 	3828.5 
326.57 	0.0010662 	4327.9 
326.85 	0.0014927 	4660.8 
327.20 	0.0012794 	5326.6 
327.63 	0.0010662 	5992.4 
328.13 	0.0011728 	6325.4 
328.48 	0.0014927 	6991.2 
328.85 	0.0019191 	7157.6 
329.02 	0.0021324 	7823.5 
329.35 	0.0025588 	8322.8 
329.63 	0.0029853 	8655.8 
329.90 	0.0034118 	8655.8 
330.18 	0.0037316 	9321.6 
330.45 	0.0041581 	9488.0 
330.77 	0.0045846 	9820.9 
331.07 	0.0050111 	10320 
331.33 	0.0054375 	10487 
331.68 	0.0058640 	10986 
332.02 	0.0062905 	11319 
332.32 	0.0067169 	11652 
332.62 	0.0071434 	11985 
332.90 	0.0075699 	12151 
333.22 	0.0079964 	12651 
333.57 	0.0084228 	12984 
333.88 	0.0088493 	13317 
334.23 	0.0092758 	13649 
334.58 	0.0097022 	13982 
335.00 	0.010129 	14315 
335.45 	0.010555 	14648 
335.85 	0.010982 	14981 
336.22 	0.011408 	15314 
336.52 	0.011835 	15813 
336.77 	0.012261 	16146 
337.00 	0.012688 	16479 
337.30 	0.013114 	16812 
337.58 	0.013540 	17145 
337.92 	0.013967 	17478 
338.22 	0.014393 	17977 
338.53 	0.014820 	18310 
338.85 	0.015246 	18643 
339.17 	0.015673 	18976 
339.50 	0.016099 	19309 
339.85 	0.016526 	19808 
340.15 	0.016952 	20141 
340.55 	0.017379 	20474 
341.05 	0.017699 	20807 
341.55 	0.017912 	20807 
342.05 	0.018018 	20974 
342.55 	0.018125 	21140 
343.05 	0.018232 	20974 
343.55 	0.018232 	21140 
344.05 	0.018338 	21140 
344.55 	0.018338 	21140 
345.05 	0.018338 	21140 
345.55 	0.018338 	21140 
346.05 	0.018338 	21140 
346.55 	0.018338 	21140 
347.05 	0.018338 	21140 
347.55 	0.018338 	21140 
348.05 	0.018338 	21140 
348.55 	0.018338 	21140 
349.05 	0.018445 	21140 
349.55 	0.018445 	21140 
350.05 	0.018338 	21140 
350.55 	0.018338 	21140 
351.05 	0.018338 	21140 
351.55 	0.018338 	21140 
352.05 	0.018338 	21140 
352.55 	0.018338 	21140 
353.05 	0.018338 	20974 
353.55 	0.018232 	21140 
354.05 	0.018232 	20974 
354.55 	0.018338 	21140 
355.05 	0.018338 	21140 
355.55 	0.018232 	21140 
356.05 	0.018232 	21140 
356.55 	0.018232 	21140 
357.05 	0.018232 	21140 
357.55 	0.018232 	21140 
358.05 	0.018338 	21140 
358.55 	0.018338 	21140 
359.05 	0.018338 	20974 
359.55 	0.018338 	21140 
360.05 	0.018338 	21140 
360.55 	0.018445 	21140 
361.05 	0.018338 	21140 
361.55 	0.018338 	21140 
362.05 	0.018338 	21140 
362.55 	0.018338 	21140 
363.05 	0.018232 	21140 
363.55 	0.018338 	21306 
364.05 	0.018338 	21306 
364.55 	0.018338 	21140 
365.05 	0.018232 	21140 
365.55 	0.018338 	21140 
366.05 	0.018232 	20974 
366.55 	0.018338 	21140 
367.05 	0.018338 	21140 
367.55 	0.018338 	21140 
368.05 	0.018338 	21140 
368.55 	0.018338 	21140 
369.05 	0.018338 	21140 
369.55 	0.018445 	21306 
370.05 	0.018445 	21306 
370.55 	0.018445 	21140 
371.05 	0.018338 	21140 
371.55 	0.018338 	21140 
372.05 	0.018338 	21140 
372.55 	0.018338 	21140 
373.05 	0.018338 	21140 
373.55 	0.018338 	21140 
374.05 	0.018445 	21140 
374.55 	0.018445 	21140 
375.05 	0.018445 	21140 
375.55 	0.018445 	21140 
376.05 	0.018338 	21140 
376.55 	0.018338 	21140 
377.05 	0.018338 	20974 
377.55 	0.018445 	21140 
378.05 	0.018445 	21140 
378.55 	0.018445 	21140 
379.05 	0.018338 	21140 
379.55 	0.018338 	21140 
380.05 	0.018445 	21140 
380.55 	0.018445 	21140 
381.05 	0.018445 	21140 
381.55 	0.018445 	21140 
382.05 	0.018338 	21140 
382.55 	0.018338 	21140 
383.05 	0.018338 	21140 
383.55 	0.018445 	21306 
384.05 	0.018552 	21140 
384.55 	0.018445 	21140 
385.05 	0.018445 	20974 
385.55 	0.018445 	21140 
386.05 	0.018445 	21140 
386.55 	0.018445 	21140 
387.05 	0.018445 	21140 
387.55 	0.018445 	21140 
388.05 	0.018445 	21140 
388.55 	0.018445 	21140 
389.05 	0.018338 	21140 
389.55 	0.018445 	21140 
390.05 	0.018445 	21306 
390.55 	0.018445 	21306 
391.05 	0.018445 	21140 
391.55 	0.018445 	21140 
392.05 	0.018445 	21140 
392.55 	0.018445 	21140 
393.05 	0.018445 	21140 
393.55 	0.018445 	21140 
394.05 	0.018445 	21306 
394.55 	0.018445 	21140 
395.05 	0.018445 	21140 
395.55 	0.018445 	21140 
396.05 	0.018445 	21140 
396.55 	0.018445 	21306 
397.05 	0.018445 	21140 
397.55 	0.018445 	21140 
398.05 	0.018338 	21140 
398.55 	0.018445 	21140 
399.05 	0.018338 	20974 
399.55 	0.018445 	21140 
400.05 	0.018445 	21140 
400.55 	0.018445 	21140 
401.05 	0.018338 	20974 
401.55 	0.018018 	20641 
402.03 	0.017592 	20141 
402.48 	0.017166 	19808 
402.92 	0.016739 	19309 
403.28 	0.016313 	18976 
403.72 	0.015886 	18477 
404.15 	0.015460 	18144 
404.55 	0.015033 	17644 
404.88 	0.014607 	17478 
405.35 	0.014180 	16979 
405.85 	0.013860 	16646 
406.25 	0.013434 	16313 
406.75 	0.013114 	15980 
407.05 	0.012688 	15647 
407.28 	0.012261 	15148 
407.63 	0.011835 	14815 
407.92 	0.011408 	14315 
408.23 	0.010982 	13982 
408.58 	0.010555 	13649 
408.95 	0.010129 	13150 
409.32 	0.0097022 	12817 
409.70 	0.0092758 	12484 
410.07 	0.0088493 	11985 
410.40 	0.0084228 	11652 
410.78 	0.0079964 	11319 
411.10 	0.0075699 	10986 
411.53 	0.0071434 	10487 
411.88 	0.0067169 	10154 
412.27 	0.0062905 	9987.4 
412.62 	0.0058640 	9321.6 
412.97 	0.0054375 	9155.1 
413.35 	0.0050111 	8822.2 
413.72 	0.0045846 	8322.8 
414.08 	0.0041581 	7823.5 
414.42 	0.0037316 	7657.0 
414.82 	0.0033052 	7324.1 
415.25 	0.0028787 	6658.3 
415.68 	0.0024522 	6158.9 
416.18 	0.0021324 	5992.4 
416.52 	0.0019191 	5326.6 
416.88 	0.0014927 	5160.2 
417.23 	0.0010662 	4827.2 
417.70 	0.00063971 	4327.9 
418.03 	0.00021324 	3995.0 
418.53 	-0.0002136 	3495.6 
418.85 	-0.0006409 	3162.7 
419.13 	-0.0010683 	2829.8 
419.58 	-0.0014956 	2496.9 
420.08 	-0.0014956 	2330.4 
420.58 	-0.0016025 	2163.9 
421.08 	-0.0013888 	1997.5 
421.25 	-0.0009614 	2163.9 
421.38 	-0.0005341 	2163.9 
421.48 	-0.0001068 	1997.5 
421.98 	-0.0003204 	1831.0 
422.48 	-0.0004273 	1831.0 
422.98 	-0.0005341 	1664.6 
423.48 	-0.0006409 	1498.1 
423.98 	-0.0007478 	1664.6 
424.48 	-0.0008546 	1498.1 
424.98 	-0.0009614 	1498.1 
425.48 	-0.0008546 	1498.1 
425.98 	-0.0008546 	1331.7 
426.48 	-0.0006409 	1498.1 
426.98 	-0.0004273 	1331.7 
427.48 	-0.0003204 	1331.7 
427.92 	0.00010662 	1331.7 
428.42 	0.00031985 	1331.7 
428.92 	0.00053309 	1331.7 
429.42 	0.00085294 	1331.7 
429.72 	0.00042647 	1331.7 
429.98 	0.00000 	1331.7 
430.27 	-0.0004273 	1331.7 
430.77 	-0.0005341 	1165.2 
431.20 	-0.0009614 	1331.7 
431.70 	-0.0009614 	1331.7 
432.10 	-0.0005341 	1331.7 
432.35 	-0.0001068 	1331.7 
432.85 	0.00031985 	1165.2 
433.07 	0.00074633 	1165.2 
433.57 	0.00053309 	1331.7 
434.07 	0.00042647 	1165.2 
434.57 	0.00021324 	1165.2 
435.07 	0.00021324 	1331.7 
435.57 	0.00021324 	1331.7 
436.07 	0.00021324 	1331.7 
436.57 	0.00000 	1331.7 
437.07 	0.00000 	1165.2 
437.23 	-0.0004273 	1331.7 
437.55 	-0.0008546 	1331.7 
438.05 	-0.0010683 	1331.7 
438.55 	-0.0013888 	1331.7 
439.05 	-0.0013888 	1331.7 
439.55 	-0.0016025 	1331.7 
440.05 	-0.0018161 	1331.7 
440.55 	-0.0017093 	1165.2 
441.05 	-0.0016025 	1331.7 
441.38 	-0.0010683 	1331.7 
441.68 	-0.0006409 	1165.2 
441.85 	-0.0002136 	1165.2 
442.08 	0.00021324 	1331.7 
442.58 	0.00000 	1331.7 
443.08 	-0.0001068 	1331.7 
443.58 	-0.0002136 	1331.7 
444.08 	-0.0003204 	1331.7 
444.58 	-0.0004273 	1331.7 
445.08 	-0.0006409 	1331.7 
445.58 	-0.0008546 	1165.2 
446.08 	-0.0010683 	1165.2 
446.58 	-0.0011751 	1165.2 
447.08 	-0.0012820 	1165.2 
447.58 	-0.0013888 	1165.2 
448.08 	-0.0013888 	1165.2 
448.58 	-0.0016025 	1331.7 
449.08 	-0.0017093 	1165.2 
449.58 	-0.0018161 	1165.2 
450.08 	-0.0017093 	1165.2 
450.58 	-0.0019230 	1331.7 
451.08 	-0.0019230 	1165.2 
451.58 	-0.0019230 	1165.2 
452.08 	-0.0019230 	1165.2 
452.58 	-0.0019230 	1331.7 
453.08 	-0.0019230 	1331.7 
453.58 	-0.0021366 	1165.2 
454.08 	-0.0021366 	1165.2 
454.58 	-0.0021366 	1165.2 
455.08 	-0.0022435 	1165.2 
455.58 	-0.0022435 	1165.2 
456.08 	-0.0023503 	1165.2 
456.58 	-0.0022435 	1165.2 
457.08 	-0.0022435 	1165.2 
457.58 	-0.0023503 	1165.2 
458.08 	-0.0022435 	1165.2 
458.58 	-0.0022435 	1165.2 
459.08 	-0.0023503 	1165.2 
459.58 	-0.0022435 	1165.2 
460.08 	-0.0020298 	1165.2 
460.58 	-0.0020298 	1165.2 
461.08 	-0.0018161 	1165.2 
461.58 	-0.0016025 	1165.2 
462.08 	-0.0017093 	1165.2 
462.58 	-0.0014956 	1165.2 
463.08 	-0.0016025 	1165.2 
463.58 	-0.0012820 	1165.2 
463.95 	-0.0008546 	1165.2 
464.43 	-0.0004273 	1165.2 
464.93 	-0.0001068 	1165.2 
465.20 	0.00031985 	998.74 
465.55 	0.00074633 	1165.2 
465.88 	0.0011728 	1165.2 
466.20 	0.0015993 	1165.2 
466.70 	0.0015993 	1165.2 
466.85 	0.00095956 	998.74 
466.88 	0.00053309 	1165.2 
467.38 	0.00053309 	1165.2 
467.88 	0.00085294 	1165.2 
468.38 	0.00074633 	1165.2 
468.57 	0.00031985 	1165.2 
469.07 	-0.0001068 	1165.2 
469.57 	-0.0002136 	1165.2 
470.07 	-0.0002136 	1165.2 
470.43 	-0.0006409 	1165.2 
470.93 	-0.0008546 	1165.2 
471.43 	-0.0008546 	1165.2 
471.93 	-0.0010683 	1165.2 
472.43 	-0.0009614 	1165.2 
472.93 	-0.0011751 	1165.2 
473.43 	-0.0012820 	1165.2 
473.93 	-0.0013888 	1165.2 
474.43 	-0.0013888 	1165.2 
474.93 	-0.0014956 	1165.2 
475.43 	-0.0017093 	998.74 
475.93 	-0.0016025 	1165.2 
476.43 	-0.0017093 	1165.2 
476.93 	-0.0017093 	1165.2 
477.43 	-0.0016025 	1165.2 
477.93 	-0.0017093 	1165.2 
478.43 	-0.0017093 	1165.2 
478.93 	-0.0016025 	1165.2 
479.43 	-0.0017093 	1165.2 
479.93 	-0.0018161 	1165.2 
480.43 	-0.0017093 	1165.2 
480.93 	-0.0017093 	1165.2 
481.43 	-0.0018161 	1165.2 
481.93 	-0.0018161 	1165.2 
482.05 	-0.0018161 	1165.2 
482.55 	-0.0018161 	1165.2 
483.05 	-0.0018161 	1165.2 
483.55 	-0.0018161 	1165.2 
484.05 	-0.0018161 	1165.2 
484.55 	-0.0018161 	1165.2 
485.05 	-0.0019230 	1165.2 
485.55 	-0.0019230 	1331.7 
486.05 	-0.0019230 	1165.2 
486.55 	-0.0019230 	998.74 
487.05 	-0.0022435 	1165.2 
487.55 	-0.0021366 	1165.2 
488.05 	-0.0021366 	1165.2 
488.55 	-0.0022435 	1165.2 
489.05 	-0.0023503 	1165.2 
489.55 	-0.0022435 	1165.2 
490.05 	-0.0022435 	1165.2 
490.55 	-0.0023503 	1165.2 
491.05 	-0.0022435 	1165.2 
491.55 	-0.0023503 	1165.2 
492.05 	-0.0023503 	1165.2 
492.55 	-0.0023503 	1165.2 
493.05 	-0.0022435 	1165.2 
493.55 	-0.0023503 	1165.2 
494.05 	-0.0024571 	1165.2 
494.55 	-0.0023503 	1165.2 
495.05 	-0.0022435 	1165.2 
495.55 	-0.0022435 	1165.2 
496.05 	-0.0022435 	1165.2 
496.55 	-0.0022435 	1165.2 
497.05 	-0.0022435 	1165.2 
497.55 	-0.0023503 	1331.7 
498.05 	-0.0023503 	1165.2 
498.55 	-0.0023503 	1165.2 
499.05 	-0.0023503 	1165.2 
499.55 	-0.0022435 	1331.7 
500.05 	-0.0023503 	1165.2 
500.55 	-0.0023503 	1165.2 
501.05 	-0.0023503 	1165.2 
501.55 	-0.0023503 	1165.2 
502.05 	-0.0024571 	1165.2 
502.55 	-0.0023503 	1165.2 
503.05 	-0.0024571 	1165.2 
503.55 	-0.0023503 	1165.2 
504.05 	-0.0023503 	1165.2 
504.55 	-0.0022435 	1165.2 
505.05 	-0.0023503 	1165.2 
505.55 	-0.0024571 	1165.2 
506.05 	-0.0024571 	1165.2 
506.55 	-0.0023503 	1165.2 
507.05 	-0.0023503 	1165.2 
507.55 	-0.0023503 	1165.2 
508.05 	-0.0023503 	1165.2 
508.55 	-0.0024571 	1165.2 
509.05 	-0.0024571 	1165.2 
509.55 	-0.0023503 	1165.2 
510.05 	-0.0024571 	1165.2 
510.55 	-0.0024571 	1165.2 
511.05 	-0.0023503 	1165.2 
511.55 	-0.0023503 	1165.2 
512.03 	-0.0024571 	1165.2 
512.53 	-0.0023503 	1165.2 
513.03 	-0.0024571 	1165.2 
513.53 	-0.0024571 	1165.2 
514.03 	-0.0024571 	1664.6 
514.53 	-0.0022435 	1664.6 
515.03 	-0.0022435 	1664.6 
515.53 	-0.0023503 	1831.0 
516.03 	-0.0023503 	1997.5 
516.53 	-0.0023503 	2330.4 
517.03 	-0.0022435 	2330.4 
517.53 	-0.0022435 	2496.9 
517.72 	-0.0018161 	2829.8 
517.97 	-0.0013888 	3329.1 
518.18 	-0.0009614 	3995.0 
518.43 	-0.0005341 	4161.4 
518.63 	-0.0001068 	4660.8 
519.02 	0.00021324 	5326.6 
519.52 	0.00031985 	5826.0 
519.93 	0.00042647 	6491.8 
520.43 	0.00053309 	7157.6 
520.88 	0.00085294 	7823.5 
521.23 	0.0012794 	8156.4 
521.62 	0.0017059 	8489.3 
521.87 	0.0020257 	9155.1 
522.17 	0.0024522 	9321.6 
522.48 	0.0028787 	9654.5 
522.75 	0.0033052 	10154 
523.17 	0.0037316 	10487 
523.57 	0.0041581 	10986 
523.95 	0.0045846 	11486 
524.28 	0.0050111 	11818 
524.60 	0.0054375 	12151 
525.02 	0.0058640 	12484 
525.35 	0.0062905 	12984 
525.70 	0.0067169 	13317 
526.03 	0.0071434 	13649 
526.37 	0.0075699 	13982 
526.87 	0.0078897 	14315 
527.23 	0.0083162 	14648 
527.70 	0.0087427 	14981 
528.05 	0.0091692 	15314 
528.38 	0.0095956 	15813 
528.62 	0.010022 	16146 
528.92 	0.010449 	16646 
529.17 	0.010875 	16979 
529.47 	0.011302 	17145 
529.80 	0.011728 	17644 
530.07 	0.012154 	17977 
530.40 	0.012581 	18310 
530.68 	0.013007 	18643 
530.98 	0.013434 	18976 
531.33 	0.013860 	19309 
531.70 	0.014287 	19808 
532.03 	0.014713 	20141 
532.38 	0.015140 	20474 
532.88 	0.015460 	20641 
533.38 	0.015673 	20807 
533.88 	0.015886 	20974 
534.38 	0.015886 	20974 
534.88 	0.015886 	21140 
535.38 	0.016099 	21140 
535.88 	0.016099 	21140 
536.38 	0.016099 	20974 
536.88 	0.015993 	21140 
537.38 	0.016099 	21140 
537.88 	0.016206 	21140 
538.38 	0.016099 	21140 
538.88 	0.016099 	21140 
539.38 	0.016099 	21140 
539.88 	0.016206 	21140 
540.38 	0.016206 	21140 
540.88 	0.016206 	21140 
541.38 	0.016206 	21140 
541.88 	0.016206 	21140 
542.38 	0.016206 	21140 
542.88 	0.016206 	21140 
543.38 	0.016206 	21140 
543.88 	0.016206 	21140 
544.38 	0.016206 	21140 
544.88 	0.016206 	21140 
545.38 	0.016206 	21140 
545.88 	0.016313 	21140 
546.38 	0.016206 	21140 
546.88 	0.016206 	21140 
547.38 	0.016313 	21140 
547.88 	0.016313 	21306 
548.38 	0.016313 	21140 
548.88 	0.016313 	21306 
549.38 	0.016313 	21140 
549.88 	0.016313 	21140 
550.38 	0.016206 	21140 
550.88 	0.016206 	20974 
551.38 	0.016206 	21140 
551.88 	0.016313 	21306 
552.38 	0.016419 	21140 
552.88 	0.016313 	21140 
553.38 	0.016206 	21140 
553.88 	0.016313 	21140 
554.38 	0.016206 	21140 
554.88 	0.016313 	21140 
555.38 	0.016313 	21306 
555.88 	0.016206 	21140 
556.38 	0.016206 	21140 
556.88 	0.016313 	21140 
557.38 	0.016313 	21140 
557.88 	0.016313 	21140 
558.38 	0.016419 	21140 
558.88 	0.016313 	21140 
559.38 	0.016313 	21140 
559.88 	0.016313 	21140 
560.38 	0.016313 	20974 
560.88 	0.016313 	21140 
561.38 	0.016313 	21140 
561.88 	0.016419 	21306 
562.38 	0.016313 	21140 
562.88 	0.016313 	21140 
563.38 	0.016313 	21140 
563.88 	0.016313 	21140 
564.38 	0.016313 	21140 
564.88 	0.016313 	21140 
565.38 	0.016313 	21140 
565.88 	0.016313 	21140 
566.38 	0.016313 	21140 
566.88 	0.016313 	21140 
567.38 	0.016419 	21140 
567.88 	0.016313 	21140 
568.38 	0.016313 	21140 
568.88 	0.016313 	21140 
569.38 	0.016313 	21140 
569.88 	0.016419 	21140 
570.38 	0.016419 	21140 
570.88 	0.016419 	21140 
571.38 	0.016313 	21140 
571.88 	0.016313 	21140 
572.38 	0.016419 	21140 
572.88 	0.016419 	21306 
573.38 	0.016419 	21306 
573.88 	0.016419 	21140 
574.38 	0.016419 	21140 
574.88 	0.016419 	21140 
575.38 	0.016419 	21306 
575.88 	0.016313 	21140 
576.38 	0.016419 	21140 
576.88 	0.016419 	21140 
577.38 	0.016313 	21140 
577.88 	0.016313 	21140 
578.38 	0.016419 	21140 
578.88 	0.016419 	21140 
579.38 	0.016419 	21306 
579.88 	0.016419 	21140 
580.38 	0.016313 	21140 
580.88 	0.016419 	21306 
581.38 	0.016419 	21140 
581.88 	0.016419 	21140 
582.38 	0.016419 	21140 
582.88 	0.016313 	21140 
583.38 	0.016419 	21140 
583.88 	0.016313 	21140 
584.38 	0.016419 	21140 
584.88 	0.016419 	21140 
585.38 	0.016419 	21140 
585.88 	0.016419 	21140 
586.38 	0.016419 	21140 
586.88 	0.016419 	21140 
587.38 	0.016313 	21140 
587.88 	0.016419 	21140 
588.38 	0.016419 	21140 
588.88 	0.016419 	21140 
589.38 	0.016419 	21140 
589.88 	0.016526 	21140 
590.38 	0.016419 	21140 
590.88 	0.016419 	21140 
591.38 	0.016419 	21140 
591.88 	0.016419 	21140 
592.38 	0.016419 	21140 
592.40 	0.016419 	21140 
592.90 	0.016419 	21306 
593.40 	0.016526 	21306 
593.90 	0.016419 	21140 
594.40 	0.016419 	21140 
594.90 	0.016526 	21140 
595.40 	0.016419 	21140 
595.90 	0.016419 	21140 
596.40 	0.016419 	21140 
596.90 	0.016419 	21140 
597.40 	0.016526 	21140 
597.90 	0.016419 	21140 
598.40 	0.016419 	21140 
598.90 	0.016419 	21140 
599.40 	0.016419 	21140 
599.90 	0.016526 	21306 
600.40 	0.016526 	21140 
600.90 	0.016526 	21306 
601.40 	0.016419 	21140 
601.90 	0.016419 	21140 
602.40 	0.016419 	21140 
602.90 	0.016526 	21140 
603.40 	0.016526 	21140 
603.90 	0.016526 	21140 
604.40 	0.016419 	21140 
604.90 	0.016526 	21140 
605.40 	0.016526 	21140 
605.90 	0.016526 	21140 
606.40 	0.016526 	21306 
606.90 	0.016526 	21140 
607.40 	0.016526 	21140 
607.90 	0.016526 	21140 
608.40 	0.016526 	21140 
608.90 	0.016526 	21140 
609.40 	0.016526 	21306 
609.90 	0.016526 	21140 
610.40 	0.016526 	21140 
610.90 	0.016526 	21140 
611.40 	0.016526 	21306 
611.90 	0.016526 	21140 
612.40 	0.016526 	21140 
612.90 	0.016526 	21140 
613.40 	0.016526 	21140 
613.90 	0.016526 	21140 
614.40 	0.016526 	21140 
614.90 	0.016526 	21140 
615.40 	0.016526 	21140 
615.90 	0.016526 	21140 
616.40 	0.016526 	21140 
616.90 	0.016526 	21140 
617.40 	0.016526 	21140 
617.90 	0.016526 	21140 
618.40 	0.016526 	21140 
618.90 	0.016632 	21306 
619.40 	0.016526 	21306 
619.90 	0.016632 	21140 
620.40 	0.016526 	21140 
620.90 	0.016526 	21140 
621.40 	0.016526 	21140 
621.90 	0.016526 	21140 
622.38 	0.016526 	21140 
622.88 	0.016526 	21140 
623.38 	0.016526 	21140 
623.88 	0.016526 	21140 
624.38 	0.016526 	21140 
624.88 	0.016526 	21306 
625.38 	0.016526 	21306 
625.88 	0.016526 	21140 
626.38 	0.016526 	21140 
626.88 	0.016526 	20974 
627.38 	0.016526 	21140 
627.88 	0.016526 	21140 
628.38 	0.016526 	21140 
628.88 	0.016526 	21140 
629.38 	0.016526 	21140 
629.88 	0.016526 	21140 
630.38 	0.016526 	20974 
630.88 	0.016526 	21140 
631.38 	0.016526 	21140 
631.88 	0.016526 	21140 
632.38 	0.016526 	21140 
632.88 	0.016526 	21140 
633.38 	0.016526 	21140 
633.88 	0.016526 	21140 
634.38 	0.016526 	21140 
634.88 	0.016526 	21140 
635.38 	0.016526 	21140 
635.88 	0.016526 	21140 
636.38 	0.016526 	21306 
636.88 	0.016526 	21140 
637.38 	0.016526 	21140 
637.88 	0.016526 	21140 
638.38 	0.016526 	21140 
638.88 	0.016526 	21140 
639.38 	0.016526 	21140 
639.88 	0.016526 	20974 
640.38 	0.016526 	20974 
640.88 	0.016526 	21140 
641.38 	0.016526 	21140 
641.88 	0.016526 	21140 
642.38 	0.016526 	21140 
642.88 	0.016526 	21140 
643.38 	0.016526 	20974 
643.88 	0.016526 	21140 
644.38 	0.016526 	21140 
644.88 	0.016526 	21140 
645.38 	0.016526 	21140 
645.88 	0.016526 	21140 
646.38 	0.016526 	21140 
646.88 	0.016526 	21140 
647.38 	0.016526 	21306 
647.88 	0.016526 	21140 
648.38 	0.016526 	21140 
648.88 	0.016526 	21140 
649.38 	0.016526 	20974 
649.88 	0.016526 	21140 
650.38 	0.016526 	21140 
650.88 	0.016526 	21140 
651.38 	0.016526 	21140 
651.88 	0.016526 	21140 
652.38 	0.016526 	21140 
652.88 	0.016526 	21140 
653.38 	0.016526 	20974 
653.88 	0.016526 	21140 
654.38 	0.016526 	21306 
654.88 	0.016526 	21140 
655.38 	0.016526 	21140 
655.88 	0.016526 	21140 
656.38 	0.016526 	21140 
656.88 	0.016526 	21140 
657.38 	0.016526 	21140 
657.88 	0.016526 	21140 
658.38 	0.016526 	21140 
658.88 	0.016526 	21140 
659.38 	0.016526 	21140 
659.88 	0.016526 	21140 
660.38 	0.016526 	21140 
660.88 	0.016526 	21140 
661.38 	0.016526 	21140 
661.88 	0.016526 	21140 
662.38 	0.016526 	20974 
662.88 	0.016526 	21140 
663.38 	0.016526 	21140 
663.88 	0.016526 	21140 
664.38 	0.016526 	21140 
664.88 	0.016526 	21140 
665.38 	0.016526 	21306 
665.88 	0.016526 	21306 
666.38 	0.016526 	21140 
666.88 	0.016526 	21140 
667.38 	0.016526 	20974 
667.88 	0.016526 	21140 
668.38 	0.016526 	21140 
668.88 	0.016526 	21140 
669.38 	0.016526 	21140 
669.88 	0.016526 	21140 
670.38 	0.016526 	21140 
670.88 	0.016526 	21140 
671.38 	0.016526 	21140 
671.88 	0.016526 	21306 
672.38 	0.016526 	21306 
672.88 	0.016526 	21140 
673.38 	0.016526 	21140 
673.88 	0.016526 	21140 
674.38 	0.016526 	21306 
674.88 	0.016526 	21140 
675.38 	0.016526 	21140 
675.88 	0.016526 	20974 
676.38 	0.016526 	21140 
676.88 	0.016526 	21140 
677.38 	0.016526 	21140 
677.88 	0.016526 	21306 
678.38 	0.016526 	21140 
678.88 	0.016526 	20974 
679.38 	0.016526 	21140 
679.88 	0.016526 	21140 
680.38 	0.016526 	21140 
680.88 	0.016526 	21140 
681.38 	0.016526 	21140 
681.88 	0.016526 	21140 
682.38 	0.016526 	21140 
682.88 	0.016526 	21140 
683.38 	0.016526 	21140 
683.88 	0.016526 	21140 
684.38 	0.016526 	21140 
684.88 	0.016526 	21140 
685.38 	0.016526 	21140 
685.88 	0.016526 	21140 
686.38 	0.016526 	21140 
686.88 	0.016526 	20974 
687.38 	0.016526 	21140 
687.88 	0.016526 	21140 
688.38 	0.016526 	21140 
688.88 	0.016526 	21140 
689.38 	0.016526 	20974 
689.88 	0.016526 	20974 
690.38 	0.016526 	21140 
690.88 	0.016526 	20974 
691.38 	0.016526 	21306 
691.88 	0.016526 	21140 
692.38 	0.016526 	21140 
692.88 	0.016526 	21140 
693.38 	0.016526 	21140 
693.88 	0.016526 	21140 
694.38 	0.016526 	21140 
694.88 	0.016526 	21140 
695.38 	0.016526 	21140 
695.88 	0.016526 	21140 
696.38 	0.016526 	21473 
696.88 	0.016526 	21806 
697.38 	0.016526 	22305 
697.88 	0.016526 	22638 
698.38 	0.016526 	23137 
698.88 	0.016526 	23637 
699.38 	0.016526 	24303 
699.88 	0.016526 	24636 
700.38 	0.016526 	25135 
700.88 	0.016526 	25634 
701.38 	0.016526 	26134 
701.87 	0.016526 	26800 
702.37 	0.016526 	27299 
702.87 	0.016526 	27632 
703.33 	0.016526 	28298 
703.83 	0.016526 	28631 
704.33 	0.016526 	29130 
704.83 	0.016526 	29796 
705.33 	0.016526 	30129 
705.83 	0.016526 	30628 
706.33 	0.016526 	31127 
706.83 	0.016526 	31627 
707.33 	0.016526 	32126 
707.83 	0.016526 	32626 
708.33 	0.016526 	33291 
708.83 	0.016526 	33791 
709.17 	0.016526 	34457 
709.67 	0.016526 	34956 
710.17 	0.016526 	35455 
710.67 	0.016526 	35955 
711.08 	0.016526 	36620 
711.58 	0.016526 	37120 
712.08 	0.016526 	37619 
712.58 	0.016526 	38119 
713.08 	0.016526 	38618 
713.58 	0.016526 	39117 
714.03 	0.016526 	39783 
714.53 	0.016526 	40116 
715.02 	0.016526 	40782 
715.52 	0.016526 	41281 
716.02 	0.016526 	41781 
716.52 	0.016526 	42280 
717.02 	0.016526 	42946 
717.52 	0.016526 	43279 
717.93 	0.016526 	43945 
718.43 	0.016526 	44278 
718.93 	0.016526 	44777 
719.43 	0.016526 	45443 
719.93 	0.016526 	45942 
720.43 	0.016526 	46441 
720.93 	0.016526 	46941 
721.43 	0.016526 	47440 
721.93 	0.016526 	47940 
722.43 	0.016526 	48439 
722.87 	0.016526 	49105 
723.37 	0.016526 	49604 
723.87 	0.016526 	50103 
724.37 	0.016526 	50603 
724.87 	0.016526 	51102 
725.37 	0.016526 	51768 
725.87 	0.016526 	52101 
726.37 	0.016526 	52767 
726.87 	0.016526 	53266 
727.37 	0.016526 	53766 
727.87 	0.016526 	54098 
728.25 	0.016526 	54764 
728.75 	0.016526 	55097 
729.25 	0.016526 	55597 
729.73 	0.016526 	56262 
730.23 	0.016526 	56762 
730.73 	0.016526 	57261 
731.23 	0.016526 	57594 
731.68 	0.016526 	58260 
732.18 	0.016526 	58759 
732.68 	0.016526 	59259 
733.18 	0.016526 	59758 
733.68 	0.016526 	60257 
734.18 	0.016526 	60923 
734.68 	0.016526 	61423 
735.18 	0.016526 	61922 
735.68 	0.016526 	62421 
736.18 	0.016526 	62754 
736.68 	0.016526 	63087 
737.18 	0.016526 	62588 
737.48 	0.016526 	63254 
737.85 	0.016526 	63919 
738.33 	0.016526 	64585 
738.77 	0.016526 	65251 
739.27 	0.016526 	65750 
739.70 	0.016526 	66416 
740.20 	0.016526 	66749 
740.70 	0.016526 	67249 
741.12 	0.016526 	67914 
741.62 	0.016526 	68247 
742.12 	0.016526 	68247 
742.35 	0.016526 	67581 
742.47 	0.016526 	66916 
742.62 	0.016526 	66250 
742.63 	0.016526 	65584 
742.65 	0.016526 	64086 
742.67 	0.016526 	62754 
742.70 	0.016526 	61922 
742.73 	0.016526 	61256 
742.78 	0.016526 	60424 
742.83 	0.016526 	59758 
742.88 	0.016526 	58926 
742.93 	0.016526 	58260 
742.98 	0.016526 	57428 
743.03 	0.016526 	56762 
743.07 	0.016526 	56096 
743.12 	0.016526 	55430 
743.17 	0.016526 	54098 
743.18 	0.016526 	53433 
743.20 	0.016526 	52767 
743.22 	0.016526 	51935 
743.25 	0.016526 	50603 
743.27 	0.016526 	49771 
743.30 	0.016526 	48439 
743.32 	0.016526 	47107 
