Tempo(s)	Deformação(mm)	Força(N)
0.016667 	0.00000 	499.37 
0.51667 	0.00000 	499.37 
1.0167 	0.00010662 	832.28 
1.5167 	0.00010662 	1165.2 
2.0167 	0.00021324 	1498.1 
2.5167 	0.00031985 	1831.0 
3.0167 	0.00042647 	2163.9 
3.5167 	0.00053309 	2663.3 
4.0167 	0.00074633 	2996.2 
4.5167 	0.00085294 	3162.7 
5.0167 	0.00085294 	3329.1 
5.5167 	0.00095956 	3495.6 
6.0167 	0.00095956 	3828.5 
6.5167 	0.0010662 	4161.4 
6.9167 	0.0012794 	4827.2 
7.4167 	0.0014927 	5326.6 
7.7333 	0.0015993 	6158.9 
8.0833 	0.0018125 	6824.7 
8.4500 	0.0021324 	7490.6 
8.7833 	0.0022390 	8156.4 
9.1833 	0.0024522 	8822.2 
9.6500 	0.0025588 	9488.0 
10.150 	0.0027721 	9987.4 
10.550 	0.0028787 	10653 
11.050 	0.0029853 	11153 
11.450 	0.0031985 	11818 
11.950 	0.0033052 	12318 
12.450 	0.0034118 	12817 
12.950 	0.0036250 	13483 
13.450 	0.0037316 	13816 
13.950 	0.0038383 	14149 
14.450 	0.0039449 	14482 
14.950 	0.0040515 	14815 
15.383 	0.0041581 	15480 
15.800 	0.0043713 	16146 
16.233 	0.0044780 	16812 
16.733 	0.0046912 	17312 
17.150 	0.0047978 	17977 
17.650 	0.0049044 	18477 
18.150 	0.0051177 	18976 
18.650 	0.0052243 	19475 
19.150 	0.0053309 	19808 
19.650 	0.0055441 	20308 
20.100 	0.0056508 	20974 
20.583 	0.0057574 	21639 
21.083 	0.0059706 	22139 
21.583 	0.0061839 	22638 
22.083 	0.0062905 	22971 
22.583 	0.0062905 	23137 
23.083 	0.0062905 	23304 
23.583 	0.0063971 	23304 
24.083 	0.0063971 	23304 
24.583 	0.0063971 	23304 
25.083 	0.0065037 	23470 
25.583 	0.0065037 	23137 
26.083 	0.0065037 	23137 
26.583 	0.0065037 	23304 
27.083 	0.0065037 	23304 
27.583 	0.0066103 	23304 
28.083 	0.0066103 	23304 
28.583 	0.0066103 	23304 
29.083 	0.0066103 	23137 
29.583 	0.0066103 	23304 
30.083 	0.0066103 	23304 
30.583 	0.0067169 	23304 
31.083 	0.0067169 	23304 
31.583 	0.0067169 	23304 
32.083 	0.0067169 	23470 
32.583 	0.0068236 	23470 
33.083 	0.0067169 	23137 
33.583 	0.0067169 	23137 
34.083 	0.0068236 	23304 
34.583 	0.0068236 	23470 
35.083 	0.0068236 	23304 
35.583 	0.0068236 	23304 
36.083 	0.0068236 	23304 
36.583 	0.0068236 	23137 
37.083 	0.0068236 	23304 
37.583 	0.0069302 	23304 
38.083 	0.0069302 	23304 
38.583 	0.0069302 	23304 
39.083 	0.0069302 	23137 
39.583 	0.0069302 	23304 
40.083 	0.0069302 	23304 
40.583 	0.0069302 	23304 
41.083 	0.0070368 	23470 
41.583 	0.0070368 	23304 
42.083 	0.0069302 	23304 
42.583 	0.0070368 	23304 
43.083 	0.0070368 	23304 
43.583 	0.0071434 	23304 
44.083 	0.0071434 	23304 
44.583 	0.0070368 	23304 
45.083 	0.0071434 	23137 
45.583 	0.0071434 	23304 
46.083 	0.0071434 	23470 
46.583 	0.0072500 	23304 
47.083 	0.0072500 	23304 
47.583 	0.0072500 	23304 
48.083 	0.0072500 	23304 
48.583 	0.0072500 	23304 
49.083 	0.0072500 	23304 
49.583 	0.0073566 	23304 
50.083 	0.0073566 	23304 
50.583 	0.0073566 	23470 
51.083 	0.0073566 	23304 
51.583 	0.0073566 	23304 
52.083 	0.0073566 	23304 
52.583 	0.0074633 	23304 
53.083 	0.0074633 	23304 
53.583 	0.0074633 	23304 
54.083 	0.0074633 	23304 
54.583 	0.0075699 	23304 
55.083 	0.0075699 	23304 
55.583 	0.0075699 	23304 
56.083 	0.0075699 	23304 
56.583 	0.0075699 	23137 
57.083 	0.0075699 	23304 
57.583 	0.0075699 	23304 
58.083 	0.0075699 	23304 
58.583 	0.0075699 	23304 
59.083 	0.0075699 	23137 
59.583 	0.0076765 	23304 
60.083 	0.0076765 	23304 
60.583 	0.0076765 	23304 
61.083 	0.0075699 	23304 
61.583 	0.0076765 	23304 
62.083 	0.0076765 	23304 
62.583 	0.0076765 	23304 
63.083 	0.0076765 	23137 
63.583 	0.0077831 	23304 
64.083 	0.0077831 	23304 
64.583 	0.0076765 	23304 
65.083 	0.0077831 	23304 
65.583 	0.0077831 	23304 
66.083 	0.0077831 	23304 
66.583 	0.0077831 	23304 
67.083 	0.0077831 	23304 
67.583 	0.0077831 	23304 
68.083 	0.0077831 	23304 
68.583 	0.0077831 	23304 
69.083 	0.0077831 	23304 
69.583 	0.0078897 	23304 
70.083 	0.0078897 	23304 
70.583 	0.0078897 	23304 
71.083 	0.0078897 	23304 
71.583 	0.0077831 	23137 
72.083 	0.0078897 	23304 
72.583 	0.0078897 	23470 
73.083 	0.0077831 	23304 
73.583 	0.0078897 	23304 
74.083 	0.0078897 	23304 
74.583 	0.0078897 	23304 
75.083 	0.0078897 	23304 
75.583 	0.0078897 	23304 
76.083 	0.0078897 	23304 
76.583 	0.0078897 	23470 
77.083 	0.0078897 	23304 
77.583 	0.0078897 	23304 
78.083 	0.0079964 	23137 
78.583 	0.0078897 	23304 
79.083 	0.0078897 	23470 
79.583 	0.0078897 	23304 
80.083 	0.0078897 	23137 
80.583 	0.0078897 	23137 
81.083 	0.0078897 	23137 
81.583 	0.0078897 	23304 
82.083 	0.0079964 	23304 
82.583 	0.0078897 	22971 
83.083 	0.0078897 	22472 
83.583 	0.0077831 	21972 
84.083 	0.0077831 	21473 
84.583 	0.0076765 	20974 
85.083 	0.0074633 	20474 
85.583 	0.0073566 	19975 
86.083 	0.0072500 	19475 
86.550 	0.0071434 	18810 
87.050 	0.0070368 	18310 
87.550 	0.0068236 	17977 
88.050 	0.0068236 	17478 
88.550 	0.0066103 	17145 
89.050 	0.0065037 	16812 
89.550 	0.0063971 	16479 
89.900 	0.0063971 	15813 
90.300 	0.0061839 	15148 
90.800 	0.0059706 	14482 
91.300 	0.0057574 	13982 
91.800 	0.0056508 	13483 
92.283 	0.0055441 	12817 
92.783 	0.0053309 	12484 
93.217 	0.0052243 	11818 
93.717 	0.0051177 	11319 
94.217 	0.0049044 	10986 
94.717 	0.0047978 	10487 
95.100 	0.0046912 	9820.9 
95.600 	0.0045846 	9488.0 
96.100 	0.0044780 	9155.1 
96.483 	0.0043713 	8489.3 
96.983 	0.0041581 	8156.4 
97.467 	0.0040515 	7490.6 
97.967 	0.0039449 	7324.1 
98.400 	0.0038383 	6658.3 
98.900 	0.0036250 	6325.4 
99.350 	0.0035184 	5659.5 
99.850 	0.0034118 	5493.1 
100.20 	0.0034118 	4827.2 
100.70 	0.0033052 	4494.3 
101.17 	0.0031985 	3828.5 
101.67 	0.0029853 	3495.6 
102.17 	0.0028787 	3162.7 
102.67 	0.0028787 	2829.8 
103.17 	0.0028787 	2496.9 
103.67 	0.0028787 	2496.9 
104.17 	0.0027721 	2496.9 
104.67 	0.0027721 	2496.9 
105.17 	0.0027721 	2330.4 
105.67 	0.0026655 	2163.9 
106.17 	0.0026655 	2163.9 
106.67 	0.0026655 	2163.9 
107.17 	0.0025588 	1997.5 
107.67 	0.0025588 	1997.5 
108.17 	0.0025588 	1997.5 
108.67 	0.0025588 	1997.5 
109.17 	0.0025588 	1997.5 
109.67 	0.0024522 	1831.0 
110.17 	0.0024522 	1831.0 
110.67 	0.0024522 	1664.6 
111.17 	0.0024522 	1831.0 
111.67 	0.0024522 	1664.6 
112.17 	0.0023456 	1664.6 
112.67 	0.0023456 	1664.6 
113.17 	0.0023456 	1498.1 
113.67 	0.0023456 	1498.1 
114.17 	0.0023456 	1498.1 
114.67 	0.0022390 	1498.1 
115.17 	0.0022390 	1331.7 
115.67 	0.0023456 	1331.7 
116.17 	0.0022390 	1498.1 
116.67 	0.0022390 	1331.7 
117.17 	0.0023456 	1331.7 
117.67 	0.0022390 	1165.2 
118.17 	0.0022390 	1165.2 
118.67 	0.0022390 	1165.2 
119.17 	0.0022390 	1165.2 
119.67 	0.0022390 	1165.2 
120.17 	0.0022390 	1165.2 
120.67 	0.0022390 	1165.2 
121.17 	0.0023456 	1165.2 
121.67 	0.0022390 	1165.2 
122.17 	0.0022390 	1165.2 
122.67 	0.0023456 	1165.2 
123.17 	0.0022390 	1165.2 
123.67 	0.0022390 	1165.2 
124.17 	0.0022390 	1165.2 
124.67 	0.0022390 	1165.2 
125.17 	0.0022390 	1165.2 
125.67 	0.0022390 	1165.2 
126.17 	0.0021324 	1165.2 
126.67 	0.0021324 	998.74 
127.17 	0.0021324 	1331.7 
127.67 	0.0020257 	1165.2 
128.17 	0.0020257 	1165.2 
128.67 	0.0020257 	1165.2 
129.17 	0.0020257 	1165.2 
129.67 	0.0020257 	1165.2 
130.17 	0.0019191 	1331.7 
130.67 	0.0020257 	1331.7 
131.17 	0.0019191 	1165.2 
131.67 	0.0018125 	1165.2 
132.17 	0.0019191 	1165.2 
132.67 	0.0019191 	1165.2 
133.17 	0.0018125 	1165.2 
133.67 	0.0018125 	1331.7 
134.17 	0.0018125 	998.74 
134.67 	0.0018125 	1165.2 
135.17 	0.0018125 	1165.2 
135.67 	0.0018125 	1165.2 
136.17 	0.0018125 	1165.2 
136.67 	0.0018125 	1165.2 
137.17 	0.0018125 	1165.2 
137.67 	0.0018125 	1165.2 
138.17 	0.0018125 	1165.2 
138.67 	0.0018125 	1165.2 
139.17 	0.0018125 	1165.2 
139.67 	0.0019191 	1331.7 
140.17 	0.0017059 	1165.2 
140.67 	0.0018125 	1165.2 
141.17 	0.0018125 	1331.7 
141.67 	0.0017059 	1165.2 
142.17 	0.0017059 	1165.2 
142.67 	0.0017059 	1331.7 
143.17 	0.0015993 	1165.2 
143.67 	0.0015993 	1165.2 
144.17 	0.0015993 	1165.2 
144.67 	0.0015993 	1165.2 
145.17 	0.0015993 	1165.2 
145.67 	0.0015993 	1165.2 
146.17 	0.0014927 	1331.7 
146.67 	0.0014927 	1165.2 
147.17 	0.0012794 	1165.2 
147.67 	0.0012794 	1165.2 
148.17 	0.0012794 	1331.7 
148.67 	0.0011728 	998.74 
149.17 	0.0011728 	1165.2 
149.67 	0.0011728 	1165.2 
150.17 	0.0010662 	1165.2 
150.67 	0.0010662 	1165.2 
151.17 	0.0010662 	1331.7 
151.67 	0.0011728 	998.74 
152.17 	0.0010662 	1165.2 
152.67 	0.0010662 	1165.2 
153.17 	0.0010662 	1331.7 
153.67 	0.0010662 	1165.2 
154.17 	0.0010662 	1165.2 
154.67 	0.0010662 	1165.2 
155.17 	0.0010662 	1165.2 
155.67 	0.0010662 	1165.2 
156.17 	0.00095956 	1165.2 
156.67 	0.0010662 	1165.2 
157.17 	0.0010662 	1331.7 
157.67 	0.0010662 	1331.7 
158.17 	0.0010662 	1165.2 
158.67 	0.0010662 	1165.2 
159.17 	0.0010662 	1165.2 
159.67 	0.0010662 	1331.7 
160.17 	0.0010662 	1331.7 
160.67 	0.0010662 	1165.2 
161.17 	0.0010662 	1165.2 
161.67 	0.0010662 	998.74 
162.17 	0.0010662 	1165.2 
162.67 	0.0011728 	1165.2 
163.17 	0.0012794 	1331.7 
163.67 	0.0013860 	1331.7 
164.17 	0.0013860 	1165.2 
164.67 	0.0013860 	998.74 
165.17 	0.0013860 	1165.2 
165.67 	0.0014927 	1331.7 
166.17 	0.0014927 	1331.7 
166.67 	0.0015993 	1498.1 
167.17 	0.0017059 	1831.0 
167.67 	0.0018125 	2330.4 
168.17 	0.0019191 	2663.3 
168.67 	0.0020257 	2829.8 
169.17 	0.0021324 	3495.6 
169.67 	0.0021324 	3495.6 
170.17 	0.0021324 	3495.6 
170.67 	0.0022390 	3828.5 
171.17 	0.0023456 	4161.4 
171.67 	0.0024522 	4660.8 
172.07 	0.0025588 	5326.6 
172.57 	0.0027721 	5992.4 
172.88 	0.0029853 	6658.3 
173.17 	0.0031985 	7324.1 
173.55 	0.0033052 	7989.9 
173.85 	0.0035184 	8655.8 
174.35 	0.0037316 	9155.1 
174.65 	0.0038383 	9820.9 
175.15 	0.0039449 	10320 
175.60 	0.0040515 	10986 
176.10 	0.0041581 	11486 
176.60 	0.0043713 	11985 
177.05 	0.0044780 	12651 
177.55 	0.0045846 	12984 
177.95 	0.0046912 	13649 
178.45 	0.0047978 	13982 
178.95 	0.0049044 	14315 
179.45 	0.0050111 	14815 
179.95 	0.0050111 	14981 
180.27 	0.0051177 	15647 
180.70 	0.0054375 	16313 
181.17 	0.0055441 	16979 
181.67 	0.0057574 	17644 
182.17 	0.0058640 	18144 
182.67 	0.0060772 	18643 
183.12 	0.0062905 	19309 
183.62 	0.0063971 	19642 
184.12 	0.0065037 	19975 
184.62 	0.0067169 	20474 
184.97 	0.0062905 	20974 
185.33 	0.0067169 	21473 
185.80 	0.0067169 	22139 
186.30 	0.0068236 	22638 
186.80 	0.0069302 	22971 
187.30 	0.0069302 	23137 
187.80 	0.0070368 	23304 
188.30 	0.0070368 	23304 
188.80 	0.0069302 	23304 
189.30 	0.0069302 	23304 
189.80 	0.0069302 	23304 
190.30 	0.0069302 	23304 
190.80 	0.0069302 	23137 
191.30 	0.0069302 	23304 
191.80 	0.0069302 	23304 
192.30 	0.0069302 	23304 
192.80 	0.0069302 	23470 
193.30 	0.0069302 	23304 
193.80 	0.0069302 	23304 
194.30 	0.0068236 	23137 
194.80 	0.0068236 	23304 
195.30 	0.0068236 	23304 
195.80 	0.0068236 	23304 
196.30 	0.0068236 	23304 
196.80 	0.0068236 	23304 
197.30 	0.0068236 	23304 
197.80 	0.0068236 	23304 
198.30 	0.0067169 	23304 
198.80 	0.0067169 	23304 
199.30 	0.0068236 	23470 
199.80 	0.0067169 	23304 
200.30 	0.0068236 	23304 
200.80 	0.0068236 	23304 
201.30 	0.0067169 	23470 
201.80 	0.0068236 	23304 
202.30 	0.0067169 	23304 
202.80 	0.0067169 	23304 
203.30 	0.0067169 	23304 
203.80 	0.0067169 	23470 
204.30 	0.0067169 	23470 
204.80 	0.0067169 	23304 
205.30 	0.0067169 	23304 
205.80 	0.0068236 	23137 
206.30 	0.0067169 	23304 
206.80 	0.0067169 	23304 
207.30 	0.0066103 	23470 
207.80 	0.0066103 	23304 
208.30 	0.0066103 	23304 
208.80 	0.0066103 	23304 
209.30 	0.0066103 	23470 
209.80 	0.0066103 	23304 
210.30 	0.0065037 	23137 
210.80 	0.0066103 	23304 
211.30 	0.0063971 	23304 
211.80 	0.0060772 	23304 
212.30 	0.0060772 	23304 
212.80 	0.0059706 	23470 
213.30 	0.0059706 	23304 
213.80 	0.0059706 	23304 
214.30 	0.0059706 	23304 
214.80 	0.0059706 	23304 
215.30 	0.0058640 	23304 
215.80 	0.0058640 	23304 
216.30 	0.0058640 	23304 
216.80 	0.0058640 	23304 
217.30 	0.0058640 	23304 
217.80 	0.0058640 	23470 
218.30 	0.0058640 	23304 
218.80 	0.0058640 	23304 
219.30 	0.0058640 	23137 
219.80 	0.0058640 	23304 
220.30 	0.0058640 	23304 
220.80 	0.0058640 	23304 
221.30 	0.0057574 	23304 
221.80 	0.0057574 	23304 
222.30 	0.0056508 	23470 
222.80 	0.0056508 	23304 
223.30 	0.0056508 	23304 
223.80 	0.0055441 	23137 
224.30 	0.0055441 	23304 
224.80 	0.0055441 	23470 
225.30 	0.0055441 	23304 
225.80 	0.0055441 	23137 
226.30 	0.0055441 	23304 
226.80 	0.0054375 	23304 
227.30 	0.0055441 	23470 
227.80 	0.0054375 	23304 
228.30 	0.0054375 	23304 
228.80 	0.0054375 	23137 
229.30 	0.0054375 	23304 
229.80 	0.0054375 	23304 
230.30 	0.0054375 	23304 
230.80 	0.0054375 	23304 
231.30 	0.0054375 	23304 
231.80 	0.0053309 	23304 
232.30 	0.0053309 	23304 
232.80 	0.0053309 	23304 
233.30 	0.0053309 	23304 
233.80 	0.0053309 	23470 
234.30 	0.0053309 	23470 
234.80 	0.0052243 	23304 
235.30 	0.0052243 	23137 
235.80 	0.0052243 	23304 
236.30 	0.0052243 	23304 
236.80 	0.0052243 	23304 
237.30 	0.0052243 	23304 
237.80 	0.0052243 	23304 
238.30 	0.0052243 	23304 
238.80 	0.0052243 	23304 
239.30 	0.0051177 	23304 
239.80 	0.0051177 	23304 
240.30 	0.0051177 	23304 
240.80 	0.0051177 	23470 
241.30 	0.0051177 	23304 
241.80 	0.0051177 	23304 
242.30 	0.0051177 	23304 
242.80 	0.0051177 	23304 
243.30 	0.0051177 	23304 
243.80 	0.0051177 	23304 
244.30 	0.0050111 	23304 
244.80 	0.0050111 	23304 
245.30 	0.0050111 	23304 
245.80 	0.0049044 	23304 
246.30 	0.0049044 	23304 
246.80 	0.0049044 	23470 
247.30 	0.0047978 	22971 
247.80 	0.0047978 	22472 
248.30 	0.0046912 	21972 
248.80 	0.0046912 	21639 
249.30 	0.0045846 	21140 
249.78 	0.0043713 	20474 
250.28 	0.0042647 	20141 
250.73 	0.0040515 	19475 
251.23 	0.0039449 	18976 
251.73 	0.0037316 	18477 
252.23 	0.0036250 	18144 
252.72 	0.0035184 	17478 
253.22 	0.0034118 	17145 
253.72 	0.0033052 	16812 
254.22 	0.0031985 	16646 
254.57 	0.0029853 	15980 
254.95 	0.0028787 	15314 
255.45 	0.0026655 	14648 
255.95 	0.0025588 	14149 
256.43 	0.0023456 	13483 
256.93 	0.0021324 	13150 
257.43 	0.0020257 	12651 
257.83 	0.0018125 	11985 
258.33 	0.0018125 	11652 
258.83 	0.0015993 	10986 
259.33 	0.0014927 	10653 
259.75 	0.0012794 	9987.4 
260.25 	0.0011728 	9820.9 
260.63 	0.0010662 	9155.1 
261.13 	0.00085294 	8822.2 
261.57 	0.00074633 	8156.4 
262.07 	0.00063971 	7989.9 
262.43 	0.00053309 	7324.1 
262.93 	0.00031985 	6824.7 
263.43 	0.00031985 	6658.3 
263.77 	0.00010662 	5992.4 
264.27 	0.00000 	5659.5 
264.77 	-0.0002136 	5160.2 
265.27 	-0.0003204 	4660.8 
265.77 	-0.0004273 	4327.9 
266.15 	-0.0005341 	3662.0 
266.65 	-0.0006409 	3329.1 
267.15 	-0.0007478 	2996.2 
267.65 	-0.0007478 	2829.8 
268.15 	-0.0008546 	2496.9 
268.65 	-0.0008546 	2496.9 
269.15 	-0.0008546 	2496.9 
269.65 	-0.0008546 	2496.9 
270.15 	-0.0009614 	2330.4 
270.65 	-0.0009614 	2330.4 
271.15 	-0.0009614 	2330.4 
271.65 	-0.0009614 	2163.9 
272.15 	-0.0009614 	2163.9 
272.65 	-0.0009614 	1997.5 
273.15 	-0.0010683 	1997.5 
273.65 	-0.0010683 	1997.5 
274.15 	-0.0010683 	1831.0 
274.65 	-0.0010683 	1831.0 
275.15 	-0.0010683 	1997.5 
275.65 	-0.0011751 	1831.0 
276.15 	-0.0011751 	1831.0 
276.65 	-0.0011751 	1664.6 
277.15 	-0.0011751 	1664.6 
277.65 	-0.0011751 	1498.1 
278.15 	-0.0011751 	1498.1 
278.65 	-0.0011751 	1498.1 
279.15 	-0.0011751 	1498.1 
279.65 	-0.0011751 	1498.1 
280.15 	-0.0012820 	1331.7 
280.65 	-0.0012820 	1498.1 
281.15 	-0.0011751 	1331.7 
281.65 	-0.0012820 	1165.2 
282.15 	-0.0012820 	1331.7 
282.65 	-0.0012820 	1331.7 
283.15 	-0.0012820 	1165.2 
283.65 	-0.0012820 	1165.2 
284.15 	-0.0012820 	1165.2 
284.65 	-0.0013888 	1165.2 
285.15 	-0.0012820 	1165.2 
285.65 	-0.0012820 	1165.2 
286.15 	-0.0012820 	1165.2 
286.65 	-0.0012820 	1165.2 
287.15 	-0.0012820 	1165.2 
287.65 	-0.0012820 	1165.2 
288.15 	-0.0012820 	1165.2 
288.65 	-0.0012820 	1165.2 
289.15 	-0.0012820 	1165.2 
289.65 	-0.0012820 	1165.2 
290.15 	-0.0013888 	1165.2 
290.65 	-0.0012820 	1165.2 
291.15 	-0.0013888 	1165.2 
291.65 	-0.0013888 	1165.2 
292.15 	-0.0013888 	1165.2 
292.65 	-0.0012820 	1165.2 
293.15 	-0.0013888 	1331.7 
293.65 	-0.0012820 	1165.2 
294.15 	-0.0012820 	1165.2 
294.65 	-0.0012820 	1331.7 
295.15 	-0.0012820 	1331.7 
295.65 	-0.0013888 	1165.2 
296.15 	-0.0012820 	1165.2 
296.65 	-0.0012820 	1165.2 
297.15 	-0.0012820 	1165.2 
297.65 	-0.0013888 	1165.2 
298.15 	-0.0013888 	998.74 
298.65 	-0.0012820 	1165.2 
299.15 	-0.0013888 	1165.2 
299.65 	-0.0012820 	1165.2 
300.15 	-0.0012820 	1165.2 
300.65 	-0.0012820 	1165.2 
301.15 	-0.0012820 	1165.2 
301.65 	-0.0012820 	1165.2 
302.15 	-0.0013888 	1331.7 
302.65 	-0.0013888 	1165.2 
303.15 	-0.0012820 	1165.2 
303.65 	-0.0012820 	1165.2 
304.15 	-0.0012820 	1165.2 
304.65 	-0.0012820 	1165.2 
305.15 	-0.0012820 	1165.2 
305.65 	-0.0012820 	1165.2 
306.15 	-0.0012820 	1165.2 
306.65 	-0.0012820 	1165.2 
307.15 	-0.0012820 	1165.2 
307.65 	-0.0012820 	998.74 
308.15 	-0.0012820 	1165.2 
308.65 	-0.0012820 	1165.2 
309.15 	-0.0012820 	1165.2 
309.65 	-0.0013888 	1165.2 
310.15 	-0.0012820 	1165.2 
310.65 	-0.0012820 	1165.2 
311.15 	-0.0012820 	1165.2 
311.65 	-0.0012820 	998.74 
312.15 	-0.0012820 	1331.7 
312.65 	-0.0012820 	1165.2 
313.15 	-0.0012820 	1165.2 
313.65 	-0.0013888 	1165.2 
314.15 	-0.0012820 	1165.2 
314.65 	-0.0012820 	1165.2 
315.15 	-0.0012820 	1165.2 
315.65 	-0.0012820 	1165.2 
316.15 	-0.0012820 	1165.2 
316.65 	-0.0013888 	1165.2 
317.15 	-0.0012820 	1165.2 
317.65 	-0.0012820 	1165.2 
318.15 	-0.0012820 	1331.7 
318.65 	-0.0012820 	998.74 
319.15 	-0.0013888 	1165.2 
319.65 	-0.0012820 	1165.2 
320.15 	-0.0012820 	1331.7 
320.65 	-0.0012820 	1165.2 
321.15 	-0.0013888 	998.74 
321.65 	-0.0012820 	998.74 
322.15 	-0.0012820 	1165.2 
322.65 	-0.0012820 	1165.2 
323.15 	-0.0013888 	1165.2 
323.65 	-0.0013888 	1165.2 
324.15 	-0.0012820 	1165.2 
324.65 	-0.0012820 	1165.2 
325.15 	-0.0013888 	1165.2 
325.65 	-0.0012820 	1165.2 
326.15 	-0.0012820 	1165.2 
326.65 	-0.0013888 	998.74 
327.15 	-0.0013888 	1165.2 
327.65 	-0.0012820 	1331.7 
328.15 	-0.0013888 	1165.2 
328.65 	-0.0013888 	1165.2 
329.15 	-0.0013888 	1165.2 
329.65 	-0.0013888 	1165.2 
330.15 	-0.0013888 	1165.2 
330.65 	-0.0013888 	1165.2 
331.15 	-0.0013888 	1331.7 
331.65 	-0.0012820 	1664.6 
332.15 	-0.0011751 	1997.5 
332.65 	-0.0010683 	2163.9 
333.15 	-0.0009614 	2663.3 
333.65 	-0.0008546 	3162.7 
334.15 	-0.0007478 	3329.1 
334.65 	-0.0006409 	3662.0 
335.15 	-0.0006409 	3662.0 
335.65 	-0.0005341 	3828.5 
336.15 	-0.0004273 	4161.4 
336.58 	-0.0003204 	4827.2 
337.08 	-0.0001068 	5160.2 
337.35 	-0.0001068 	5826.0 
337.72 	0.00021324 	6491.8 
338.15 	0.00042647 	7157.6 
338.45 	0.00053309 	7823.5 
338.77 	0.00074633 	8489.3 
339.22 	0.00085294 	9155.1 
339.67 	0.0010662 	9820.9 
340.13 	0.0011728 	10487 
340.63 	0.0013860 	10986 
341.13 	0.0014927 	11486 
341.58 	0.0015993 	12151 
342.03 	0.0018125 	12817 
342.53 	0.0019191 	13150 
343.03 	0.0020257 	13649 
343.53 	0.0021324 	14149 
344.03 	0.0022390 	14482 
344.53 	0.0023456 	14815 
345.03 	0.0023456 	15148 
345.33 	0.0025588 	15813 
345.73 	0.0027721 	16479 
346.23 	0.0028787 	16979 
346.60 	0.0029853 	17644 
347.10 	0.0031985 	18144 
347.60 	0.0033052 	18643 
348.10 	0.0034118 	19143 
348.60 	0.0036250 	19642 
349.10 	0.0037316 	20141 
349.60 	0.0038383 	20474 
350.00 	0.0039449 	21140 
350.42 	0.0040515 	21806 
350.92 	0.0042647 	22305 
351.42 	0.0044780 	22805 
351.92 	0.0045846 	22971 
352.42 	0.0045846 	23137 
352.92 	0.0045846 	23304 
353.42 	0.0045846 	23304 
353.92 	0.0046912 	23304 
354.42 	0.0046912 	23304 
354.92 	0.0046912 	23304 
355.42 	0.0046912 	23304 
355.92 	0.0046912 	23137 
356.42 	0.0045846 	23304 
356.92 	0.0046912 	23137 
357.42 	0.0045846 	23304 
357.92 	0.0046912 	23304 
358.42 	0.0046912 	23304 
358.92 	0.0046912 	23137 
359.42 	0.0045846 	23137 
359.92 	0.0046912 	23304 
360.42 	0.0046912 	23304 
360.92 	0.0046912 	23304 
361.42 	0.0046912 	23137 
361.92 	0.0046912 	23137 
362.42 	0.0046912 	23470 
362.92 	0.0046912 	23304 
363.42 	0.0045846 	23304 
363.92 	0.0046912 	23304 
364.42 	0.0046912 	23304 
364.92 	0.0046912 	23470 
365.42 	0.0045846 	23470 
365.92 	0.0046912 	23137 
366.42 	0.0045846 	23304 
366.92 	0.0046912 	23470 
367.42 	0.0046912 	23470 
367.92 	0.0046912 	23304 
368.42 	0.0046912 	23304 
368.92 	0.0046912 	23304 
369.42 	0.0046912 	23304 
369.92 	0.0046912 	23304 
370.42 	0.0045846 	23304 
370.92 	0.0046912 	23137 
371.42 	0.0046912 	23304 
371.92 	0.0046912 	23304 
372.42 	0.0046912 	23304 
372.92 	0.0046912 	23304 
373.42 	0.0046912 	23304 
373.92 	0.0046912 	23304 
374.42 	0.0046912 	23304 
374.92 	0.0046912 	23137 
375.42 	0.0046912 	23470 
375.92 	0.0046912 	23304 
376.42 	0.0046912 	23304 
376.92 	0.0046912 	23304 
377.42 	0.0046912 	23304 
377.92 	0.0046912 	23304 
378.42 	0.0046912 	23304 
378.92 	0.0046912 	23304 
379.42 	0.0046912 	23304 
379.92 	0.0046912 	23304 
380.42 	0.0046912 	23304 
380.92 	0.0046912 	23304 
381.42 	0.0046912 	23304 
381.92 	0.0046912 	23470 
382.42 	0.0046912 	23304 
382.92 	0.0045846 	23304 
383.42 	0.0045846 	23304 
383.92 	0.0045846 	23304 
384.42 	0.0045846 	23304 
384.92 	0.0046912 	23470 
385.42 	0.0046912 	23304 
385.92 	0.0045846 	23304 
386.42 	0.0046912 	23470 
386.92 	0.0045846 	23304 
387.42 	0.0046912 	23304 
387.92 	0.0045846 	23304 
388.42 	0.0046912 	23304 
388.92 	0.0046912 	23470 
389.42 	0.0045846 	23304 
389.92 	0.0046912 	23304 
390.42 	0.0046912 	23137 
390.92 	0.0046912 	23304 
391.42 	0.0046912 	23304 
391.92 	0.0046912 	23304 
392.42 	0.0046912 	23304 
392.92 	0.0046912 	23304 
393.42 	0.0045846 	23304 
393.92 	0.0046912 	23304 
394.42 	0.0046912 	23304 
394.92 	0.0046912 	23304 
395.42 	0.0046912 	23304 
395.92 	0.0045846 	23304 
396.42 	0.0046912 	23304 
396.92 	0.0046912 	23304 
397.42 	0.0045846 	23304 
397.92 	0.0046912 	23304 
398.42 	0.0046912 	23137 
398.92 	0.0046912 	23304 
399.42 	0.0046912 	23304 
399.92 	0.0046912 	23304 
400.42 	0.0046912 	23304 
400.92 	0.0046912 	23137 
401.42 	0.0046912 	23304 
401.92 	0.0046912 	23304 
402.42 	0.0046912 	23304 
402.92 	0.0046912 	23304 
403.42 	0.0046912 	23304 
403.92 	0.0046912 	23304 
404.42 	0.0046912 	23304 
404.92 	0.0046912 	23470 
405.42 	0.0046912 	23304 
405.92 	0.0046912 	23304 
406.42 	0.0046912 	23304 
406.92 	0.0046912 	23304 
407.42 	0.0045846 	23304 
407.92 	0.0045846 	23304 
408.42 	0.0045846 	23470 
408.92 	0.0046912 	23304 
409.42 	0.0046912 	23304 
409.92 	0.0046912 	23137 
410.42 	0.0046912 	23304 
410.92 	0.0046912 	23304 
411.42 	0.0045846 	23304 
411.92 	0.0046912 	23137 
412.42 	0.0046912 	22638 
412.92 	0.0045846 	22305 
413.42 	0.0045846 	21806 
413.92 	0.0044780 	21306 
414.42 	0.0042647 	20974 
414.92 	0.0041581 	20308 
415.42 	0.0040515 	19808 
415.92 	0.0038383 	19309 
416.42 	0.0037316 	18810 
416.92 	0.0036250 	18310 
417.42 	0.0035184 	17811 
417.92 	0.0034118 	17478 
418.42 	0.0033052 	17145 
418.92 	0.0031985 	16646 
419.42 	0.0030919 	16146 
419.77 	0.0028787 	15480 
420.27 	0.0026655 	14815 
420.77 	0.0025588 	14149 
421.27 	0.0024522 	13649 
421.77 	0.0022390 	13150 
422.27 	0.0021324 	12651 
422.73 	0.0019191 	11985 
423.23 	0.0018125 	11652 
423.73 	0.0017059 	10986 
424.23 	0.0014927 	10653 
424.73 	0.0013860 	10154 
425.20 	0.0011728 	9488.0 
425.70 	0.0010662 	9155.1 
426.13 	0.00095956 	8489.3 
426.63 	0.00085294 	8156.4 
427.13 	0.00074633 	7657.0 
427.63 	0.00053309 	7324.1 
427.98 	0.00042647 	6658.3 
428.48 	0.00031985 	6325.4 
428.98 	0.00021324 	5992.4 
429.40 	0.00010662 	5326.6 
429.90 	-0.0001068 	4993.7 
430.30 	-0.0002136 	4327.9 
430.80 	-0.0003204 	4161.4 
431.30 	-0.0004273 	3662.0 
431.80 	-0.0005341 	3329.1 
432.30 	-0.0006409 	2829.8 
432.80 	-0.0006409 	2663.3 
433.30 	-0.0006409 	2663.3 
433.80 	-0.0007478 	2496.9 
434.30 	-0.0006409 	2496.9 
434.80 	-0.0006409 	2330.4 
435.30 	-0.0007478 	2330.4 
435.80 	-0.0007478 	2163.9 
436.30 	-0.0007478 	2163.9 
436.80 	-0.0007478 	1997.5 
437.30 	-0.0008546 	2163.9 
437.80 	-0.0008546 	2163.9 
438.30 	-0.0008546 	1997.5 
438.80 	-0.0008546 	1997.5 
439.30 	-0.0008546 	1831.0 
439.80 	-0.0008546 	1831.0 
440.30 	-0.0008546 	1831.0 
440.80 	-0.0009614 	1831.0 
441.30 	-0.0009614 	1498.1 
441.80 	-0.0009614 	1664.6 
442.30 	-0.0009614 	1664.6 
442.80 	-0.0009614 	1498.1 
443.30 	-0.0009614 	1498.1 
443.80 	-0.0009614 	1498.1 
444.30 	-0.0010683 	1331.7 
444.80 	-0.0010683 	1498.1 
445.30 	-0.0010683 	1331.7 
445.80 	-0.0010683 	1331.7 
446.30 	-0.0010683 	1331.7 
446.80 	-0.0010683 	1331.7 
447.30 	-0.0010683 	1165.2 
447.80 	-0.0010683 	1165.2 
448.30 	-0.0010683 	1165.2 
448.80 	-0.0010683 	1165.2 
449.30 	-0.0010683 	1165.2 
449.80 	-0.0010683 	1165.2 
450.30 	-0.0010683 	1165.2 
450.80 	-0.0010683 	1165.2 
451.30 	-0.0010683 	1165.2 
451.80 	-0.0010683 	1165.2 
452.30 	-0.0011751 	1165.2 
452.80 	-0.0010683 	1165.2 
453.30 	-0.0010683 	1165.2 
453.80 	-0.0010683 	1331.7 
454.30 	-0.0010683 	1165.2 
454.80 	-0.0010683 	1165.2 
455.30 	-0.0010683 	998.74 
455.80 	-0.0010683 	998.74 
456.30 	-0.0010683 	1165.2 
456.80 	-0.0011751 	1165.2 
457.30 	-0.0011751 	1165.2 
457.80 	-0.0010683 	1165.2 
458.30 	-0.0010683 	1165.2 
458.80 	-0.0010683 	1165.2 
459.30 	-0.0011751 	1165.2 
459.80 	-0.0010683 	1165.2 
460.30 	-0.0010683 	1165.2 
460.80 	-0.0010683 	1165.2 
461.30 	-0.0011751 	1165.2 
461.80 	-0.0011751 	998.74 
462.30 	-0.0010683 	1165.2 
462.80 	-0.0010683 	1331.7 
463.30 	-0.0010683 	1165.2 
463.80 	-0.0010683 	1165.2 
464.30 	-0.0011751 	1165.2 
464.80 	-0.0011751 	1165.2 
465.30 	-0.0010683 	998.74 
465.80 	-0.0010683 	1165.2 
466.30 	-0.0010683 	1165.2 
466.80 	-0.0010683 	1165.2 
467.30 	-0.0010683 	1165.2 
467.80 	-0.0011751 	1165.2 
468.30 	-0.0011751 	998.74 
468.80 	-0.0011751 	1165.2 
469.30 	-0.0011751 	1165.2 
469.80 	-0.0011751 	998.74 
470.30 	-0.0011751 	1165.2 
470.80 	-0.0010683 	1165.2 
471.30 	-0.0011751 	1165.2 
471.80 	-0.0010683 	1165.2 
472.30 	-0.0010683 	1165.2 
472.80 	-0.0011751 	1165.2 
473.30 	-0.0011751 	1165.2 
473.80 	-0.0011751 	1331.7 
474.30 	-0.0010683 	1165.2 
474.80 	-0.0010683 	1165.2 
475.30 	-0.0011751 	1165.2 
475.80 	-0.0011751 	1331.7 
476.30 	-0.0010683 	1165.2 
476.80 	-0.0011751 	1165.2 
477.30 	-0.0011751 	998.74 
477.80 	-0.0011751 	1165.2 
478.30 	-0.0011751 	1165.2 
478.80 	-0.0011751 	1165.2 
479.30 	-0.0011751 	1165.2 
479.80 	-0.0010683 	1165.2 
480.30 	-0.0011751 	998.74 
480.80 	-0.0011751 	1165.2 
481.30 	-0.0011751 	998.74 
481.80 	-0.0011751 	1165.2 
482.30 	-0.0011751 	1165.2 
482.80 	-0.0011751 	1165.2 
483.30 	-0.0011751 	1165.2 
483.80 	-0.0011751 	1165.2 
484.30 	-0.0011751 	1165.2 
484.80 	-0.0011751 	1165.2 
485.30 	-0.0011751 	1165.2 
485.80 	-0.0011751 	1165.2 
486.30 	-0.0011751 	1165.2 
486.80 	-0.0011751 	1165.2 
487.30 	-0.0011751 	1165.2 
487.80 	-0.0010683 	1165.2 
488.30 	-0.0011751 	1165.2 
488.80 	-0.0011751 	1165.2 
489.30 	-0.0011751 	1165.2 
489.80 	-0.0011751 	1165.2 
490.30 	-0.0011751 	1165.2 
490.80 	-0.0011751 	1165.2 
491.30 	-0.0011751 	1165.2 
491.80 	-0.0010683 	1165.2 
492.30 	-0.0011751 	1165.2 
492.80 	-0.0011751 	1165.2 
493.30 	-0.0011751 	1165.2 
493.80 	-0.0011751 	1331.7 
494.30 	-0.0011751 	1165.2 
494.80 	-0.0011751 	998.74 
495.17 	-0.0011751 	1165.2 
495.67 	-0.0011751 	1165.2 
496.17 	-0.0011751 	1165.2 
496.67 	-0.0010683 	1165.2 
497.17 	-0.0011751 	1165.2 
497.67 	-0.0011751 	1165.2 
498.17 	-0.0011751 	1331.7 
498.67 	-0.0011751 	1165.2 
499.17 	-0.0011751 	998.74 
499.67 	-0.0011751 	1165.2 
500.17 	-0.0011751 	1165.2 
500.67 	-0.0011751 	1331.7 
501.17 	-0.0011751 	1165.2 
501.67 	-0.0011751 	1165.2 
502.17 	-0.0011751 	998.74 
502.67 	-0.0011751 	1331.7 
503.17 	-0.0011751 	1165.2 
503.67 	-0.0011751 	1165.2 
504.17 	-0.0011751 	1165.2 
504.67 	-0.0011751 	1165.2 
505.17 	-0.0011751 	1165.2 
505.67 	-0.0011751 	1165.2 
506.17 	-0.0011751 	1331.7 
506.67 	-0.0011751 	1331.7 
507.17 	-0.0011751 	1165.2 
507.67 	-0.0011751 	998.74 
508.17 	-0.0011751 	1331.7 
508.67 	-0.0011751 	1165.2 
509.17 	-0.0011751 	1331.7 
509.67 	-0.0011751 	1165.2 
510.17 	-0.0011751 	1165.2 
510.67 	-0.0011751 	1165.2 
511.17 	-0.0011751 	1165.2 
511.67 	-0.0011751 	1165.2 
512.17 	-0.0011751 	1165.2 
512.67 	-0.0011751 	1165.2 
513.17 	-0.0011751 	1165.2 
513.67 	-0.0011751 	1165.2 
514.17 	-0.0011751 	1165.2 
514.67 	-0.0011751 	1165.2 
515.17 	-0.0011751 	1331.7 
515.67 	-0.0011751 	1165.2 
516.17 	-0.0011751 	1165.2 
516.67 	-0.0011751 	1165.2 
517.17 	-0.0011751 	1165.2 
517.67 	-0.0012820 	1165.2 
518.17 	-0.0011751 	1165.2 
518.67 	-0.0011751 	1165.2 
519.17 	-0.0011751 	1165.2 
519.67 	-0.0011751 	1165.2 
520.17 	-0.0011751 	1165.2 
520.67 	-0.0011751 	1165.2 
521.17 	-0.0011751 	1165.2 
521.67 	-0.0011751 	1165.2 
522.17 	-0.0011751 	1331.7 
522.67 	-0.0011751 	1165.2 
523.17 	-0.0011751 	1165.2 
523.67 	-0.0011751 	1165.2 
524.17 	-0.0011751 	1165.2 
524.67 	-0.0011751 	1165.2 
525.17 	-0.0011751 	1165.2 
525.67 	-0.0011751 	1165.2 
526.17 	-0.0011751 	1165.2 
526.67 	-0.0011751 	1165.2 
527.17 	-0.0011751 	1498.1 
527.67 	-0.0009614 	1831.0 
528.17 	-0.0009614 	2163.9 
528.67 	-0.0008546 	2496.9 
529.17 	-0.0007478 	2829.8 
529.67 	-0.0006409 	3162.7 
530.17 	-0.0004273 	3662.0 
530.67 	-0.0003204 	3662.0 
531.17 	-0.0002136 	3662.0 
531.67 	-0.0002136 	3995.0 
532.17 	0.00000 	4327.9 
532.53 	0.00010662 	4993.7 
533.03 	0.00021324 	5326.6 
533.33 	0.00042647 	5992.4 
533.65 	0.00063971 	6658.3 
533.95 	0.00074633 	7324.1 
534.32 	0.00095956 	7989.9 
534.67 	0.0011728 	8655.8 
535.03 	0.0012794 	9321.6 
535.53 	0.0014927 	9654.5 
535.85 	0.0015993 	10320 
536.35 	0.0018125 	10820 
536.78 	0.0019191 	11486 
537.28 	0.0020257 	11985 
537.78 	0.0022390 	12484 
538.23 	0.0023456 	13150 
538.73 	0.0024522 	13483 
539.22 	0.0025588 	14149 
539.72 	0.0026655 	14315 
540.22 	0.0027721 	14648 
540.72 	0.0028787 	14981 
541.03 	0.0030919 	15647 
541.43 	0.0031985 	16313 
541.87 	0.0034118 	16979 
542.37 	0.0036250 	17478 
542.82 	0.0038383 	18144 
543.32 	0.0039449 	18643 
543.82 	0.0041581 	19143 
544.32 	0.0042647 	19642 
544.82 	0.0043713 	19975 
545.32 	0.0044780 	20474 
545.72 	0.0045846 	21140 
546.22 	0.0047978 	21639 
546.68 	0.0049044 	22305 
547.18 	0.0051177 	22638 
547.68 	0.0051177 	22971 
548.18 	0.0052243 	23137 
548.68 	0.0052243 	23304 
549.18 	0.0052243 	23304 
549.68 	0.0052243 	23137 
550.18 	0.0053309 	23304 
550.68 	0.0052243 	23304 
551.18 	0.0052243 	23304 
551.68 	0.0053309 	23304 
552.18 	0.0053309 	23137 
552.68 	0.0053309 	23304 
553.18 	0.0053309 	23304 
553.68 	0.0053309 	23137 
554.18 	0.0052243 	23304 
554.68 	0.0053309 	23304 
555.18 	0.0053309 	23304 
555.68 	0.0052243 	23304 
556.18 	0.0053309 	23470 
556.68 	0.0052243 	23304 
557.18 	0.0053309 	23304 
557.68 	0.0053309 	23137 
558.18 	0.0053309 	23137 
558.68 	0.0053309 	23470 
559.18 	0.0053309 	23304 
559.68 	0.0053309 	23304 
560.18 	0.0053309 	23304 
560.68 	0.0052243 	23304 
561.18 	0.0053309 	23304 
561.68 	0.0053309 	23304 
562.18 	0.0053309 	23304 
562.68 	0.0053309 	23304 
563.18 	0.0053309 	23304 
563.68 	0.0053309 	23304 
564.18 	0.0053309 	23137 
564.68 	0.0053309 	23304 
565.18 	0.0053309 	23304 
565.68 	0.0053309 	23304 
566.18 	0.0053309 	23304 
566.68 	0.0053309 	23304 
567.18 	0.0053309 	23304 
567.68 	0.0053309 	23470 
568.18 	0.0053309 	23304 
568.68 	0.0053309 	23304 
569.18 	0.0053309 	23137 
569.68 	0.0054375 	23304 
570.18 	0.0053309 	23304 
570.68 	0.0053309 	23304 
571.18 	0.0053309 	23304 
571.68 	0.0053309 	23304 
572.18 	0.0053309 	23304 
572.68 	0.0054375 	23304 
573.18 	0.0053309 	23304 
573.68 	0.0053309 	23304 
574.18 	0.0053309 	23137 
574.68 	0.0053309 	23304 
575.18 	0.0054375 	23470 
575.68 	0.0053309 	23470 
576.18 	0.0054375 	23470 
576.68 	0.0054375 	23137 
577.18 	0.0053309 	23304 
577.68 	0.0053309 	23304 
578.18 	0.0053309 	23304 
578.68 	0.0053309 	23304 
579.18 	0.0053309 	23304 
579.68 	0.0054375 	23470 
580.18 	0.0054375 	23470 
580.68 	0.0054375 	23304 
581.18 	0.0053309 	23304 
581.68 	0.0053309 	23304 
582.18 	0.0053309 	23137 
582.68 	0.0053309 	23470 
583.18 	0.0053309 	23304 
583.68 	0.0053309 	23304 
584.18 	0.0053309 	23304 
584.68 	0.0053309 	23304 
585.18 	0.0053309 	23304 
585.68 	0.0053309 	23137 
586.18 	0.0053309 	23304 
586.68 	0.0053309 	23304 
587.18 	0.0053309 	23304 
587.68 	0.0053309 	23304 
588.18 	0.0053309 	23304 
588.68 	0.0053309 	23304 
589.18 	0.0054375 	23304 
589.68 	0.0053309 	23304 
590.18 	0.0053309 	23304 
590.68 	0.0053309 	23470 
591.18 	0.0054375 	23304 
591.68 	0.0053309 	23137 
592.18 	0.0054375 	23137 
592.68 	0.0054375 	23304 
593.18 	0.0054375 	23470 
593.68 	0.0054375 	23304 
594.18 	0.0054375 	23304 
594.68 	0.0054375 	23137 
595.18 	0.0053309 	23304 
595.68 	0.0053309 	23304 
596.18 	0.0054375 	23304 
596.68 	0.0053309 	23137 
597.18 	0.0054375 	23137 
597.68 	0.0054375 	23304 
598.18 	0.0054375 	23470 
598.68 	0.0054375 	23304 
599.18 	0.0054375 	23304 
599.68 	0.0054375 	23304 
600.18 	0.0054375 	23304 
600.68 	0.0054375 	23304 
601.18 	0.0054375 	23137 
601.68 	0.0054375 	23137 
602.18 	0.0054375 	23304 
602.68 	0.0054375 	23304 
603.18 	0.0054375 	23304 
603.68 	0.0054375 	23304 
604.18 	0.0054375 	23470 
604.68 	0.0054375 	23304 
605.18 	0.0054375 	23304 
605.68 	0.0055441 	23304 
606.18 	0.0054375 	23470 
606.68 	0.0054375 	23470 
607.18 	0.0054375 	23304 
607.43 	0.0054375 	23304 
607.93 	0.0055441 	23304 
608.43 	0.0055441 	23304 
608.93 	0.0054375 	23304 
609.43 	0.0054375 	23304 
609.93 	0.0055441 	23304 
610.43 	0.0054375 	23470 
610.93 	0.0054375 	23304 
611.43 	0.0054375 	23304 
611.93 	0.0054375 	23304 
612.43 	0.0055441 	23137 
612.93 	0.0054375 	23470 
613.43 	0.0055441 	23470 
613.93 	0.0054375 	23304 
614.43 	0.0055441 	23304 
614.93 	0.0054375 	23304 
615.43 	0.0054375 	23304 
615.93 	0.0054375 	23304 
616.43 	0.0055441 	23304 
616.93 	0.0054375 	23304 
617.43 	0.0054375 	23304 
617.93 	0.0054375 	23470 
618.43 	0.0054375 	23304 
618.93 	0.0054375 	23470 
619.43 	0.0054375 	23137 
619.93 	0.0055441 	23304 
620.43 	0.0055441 	23304 
620.93 	0.0055441 	23304 
621.43 	0.0055441 	23304 
621.93 	0.0055441 	23470 
622.43 	0.0055441 	23304 
622.93 	0.0055441 	23304 
623.43 	0.0055441 	23304 
623.93 	0.0055441 	23304 
624.43 	0.0055441 	23304 
624.93 	0.0055441 	23470 
625.43 	0.0055441 	23304 
625.93 	0.0055441 	23137 
626.43 	0.0055441 	23304 
626.93 	0.0055441 	23470 
627.43 	0.0055441 	23304 
627.93 	0.0055441 	23137 
628.43 	0.0055441 	23137 
628.93 	0.0055441 	23304 
629.43 	0.0055441 	23304 
629.93 	0.0055441 	23304 
630.43 	0.0055441 	23304 
630.93 	0.0055441 	23470 
631.43 	0.0055441 	23304 
631.93 	0.0055441 	23137 
632.43 	0.0055441 	23304 
632.93 	0.0055441 	23470 
633.43 	0.0055441 	23304 
633.93 	0.0055441 	23304 
634.43 	0.0055441 	23304 
634.93 	0.0056508 	23304 
635.43 	0.0055441 	23304 
635.93 	0.0056508 	23304 
636.43 	0.0055441 	23304 
636.93 	0.0055441 	23304 
637.43 	0.0055441 	23304 
637.93 	0.0055441 	23304 
638.43 	0.0055441 	23304 
638.93 	0.0055441 	23304 
639.43 	0.0055441 	23470 
639.93 	0.0055441 	23470 
640.43 	0.0055441 	23304 
640.93 	0.0055441 	23304 
641.43 	0.0055441 	23304 
641.93 	0.0055441 	23304 
642.43 	0.0055441 	23304 
642.93 	0.0055441 	23304 
643.43 	0.0055441 	23137 
643.93 	0.0055441 	23304 
644.43 	0.0055441 	23304 
644.93 	0.0055441 	23304 
645.43 	0.0055441 	23304 
645.93 	0.0055441 	23304 
646.43 	0.0055441 	23304 
646.93 	0.0055441 	23304 
647.43 	0.0055441 	23304 
647.93 	0.0055441 	23304 
648.43 	0.0055441 	23304 
648.93 	0.0055441 	23304 
649.43 	0.0055441 	23304 
649.93 	0.0055441 	23137 
650.43 	0.0055441 	23304 
650.93 	0.0055441 	23304 
651.43 	0.0055441 	23304 
651.93 	0.0055441 	23304 
652.43 	0.0055441 	23304 
652.93 	0.0055441 	23304 
653.43 	0.0055441 	23304 
653.93 	0.0055441 	23304 
654.43 	0.0055441 	23304 
654.93 	0.0055441 	23304 
655.43 	0.0055441 	23470 
655.93 	0.0055441 	23470 
656.43 	0.0055441 	23137 
656.93 	0.0055441 	23304 
657.43 	0.0055441 	23304 
657.93 	0.0055441 	23304 
658.43 	0.0055441 	23304 
658.93 	0.0055441 	23304 
659.43 	0.0055441 	23304 
659.93 	0.0055441 	23470 
660.43 	0.0055441 	23470 
660.93 	0.0055441 	23304 
661.43 	0.0055441 	23304 
661.93 	0.0055441 	23304 
662.43 	0.0055441 	23470 
662.93 	0.0055441 	23304 
663.43 	0.0055441 	23304 
663.93 	0.0055441 	23304 
664.43 	0.0055441 	23304 
664.93 	0.0055441 	23470 
665.43 	0.0055441 	23470 
665.93 	0.0055441 	23304 
666.43 	0.0055441 	23137 
666.93 	0.0055441 	23304 
667.43 	0.0055441 	23470 
667.93 	0.0055441 	23304 
668.43 	0.0055441 	23304 
668.93 	0.0055441 	23304 
669.43 	0.0055441 	23304 
669.93 	0.0055441 	23470 
670.43 	0.0055441 	23304 
670.93 	0.0055441 	23304 
671.43 	0.0055441 	23304 
671.93 	0.0055441 	23304 
672.43 	0.0055441 	23470 
672.93 	0.0055441 	23304 
673.43 	0.0055441 	23304 
673.93 	0.0055441 	23304 
674.43 	0.0055441 	23304 
674.93 	0.0055441 	23304 
675.43 	0.0055441 	23304 
675.93 	0.0055441 	23137 
676.43 	0.0055441 	23304 
676.93 	0.0055441 	23470 
677.43 	0.0055441 	23470 
677.93 	0.0055441 	23304 
678.43 	0.0055441 	23304 
678.93 	0.0055441 	23304 
679.43 	0.0055441 	23304 
679.93 	0.0055441 	23470 
680.43 	0.0055441 	23304 
680.93 	0.0055441 	23137 
681.43 	0.0055441 	23137 
681.93 	0.0055441 	23137 
682.43 	0.0055441 	23304 
682.93 	0.0055441 	23304 
683.43 	0.0055441 	23304 
683.93 	0.0055441 	23304 
684.43 	0.0055441 	23304 
684.93 	0.0055441 	23137 
685.43 	0.0055441 	23304 
685.93 	0.0055441 	23304 
686.43 	0.0055441 	23304 
686.93 	0.0055441 	23304 
687.43 	0.0055441 	23304 
687.93 	0.0055441 	23304 
688.43 	0.0055441 	23304 
688.93 	0.0055441 	23304 
689.43 	0.0055441 	23304 
689.93 	0.0055441 	23304 
690.43 	0.0055441 	23304 
690.93 	0.0055441 	23304 
691.43 	0.0055441 	23304 
691.93 	0.0055441 	23304 
692.43 	0.0055441 	23304 
692.93 	0.0055441 	23304 
693.43 	0.0055441 	23137 
693.93 	0.0055441 	23304 
694.43 	0.0055441 	23304 
694.93 	0.0055441 	23304 
695.43 	0.0055441 	23137 
695.93 	0.0055441 	23137 
696.43 	0.0055441 	23304 
696.93 	0.0055441 	23304 
697.43 	0.0055441 	23304 
697.88 	0.0055441 	23970 
698.38 	0.0055441 	24469 
698.88 	0.0055441 	24969 
699.38 	0.0055441 	25468 
699.88 	0.0055441 	25801 
700.38 	0.0055441 	26467 
700.88 	0.0055441 	26800 
701.38 	0.0055441 	27299 
701.88 	0.0055441 	27632 
702.38 	0.0055441 	28131 
702.88 	0.0055441 	28631 
703.27 	0.0055441 	29296 
703.77 	0.0055441 	29629 
704.27 	0.0055441 	30129 
704.75 	0.0055441 	30795 
705.25 	0.0055441 	31294 
705.72 	0.0055441 	31960 
706.22 	0.0055441 	32293 
706.58 	0.0055441 	32958 
707.08 	0.0055441 	33458 
707.50 	0.0055441 	34124 
708.00 	0.0055441 	34623 
708.50 	0.0055441 	35122 
709.00 	0.0055441 	35788 
709.50 	0.0055441 	36288 
710.00 	0.0055441 	36787 
710.50 	0.0055441 	37453 
711.00 	0.0055441 	37786 
711.48 	0.0055441 	38452 
711.98 	0.0055441 	38951 
712.48 	0.0055441 	39450 
712.98 	0.0055441 	39950 
713.48 	0.0055441 	40449 
713.83 	0.0055441 	41115 
714.33 	0.0055441 	41448 
714.83 	0.0055441 	41947 
715.33 	0.0055441 	42446 
715.83 	0.0055441 	43112 
716.33 	0.0055441 	43612 
716.83 	0.0055441 	43945 
717.27 	0.0055441 	44610 
717.77 	0.0055441 	45110 
718.27 	0.0055441 	45609 
718.77 	0.0055441 	46109 
719.25 	0.0055441 	46774 
719.75 	0.0055441 	47274 
720.25 	0.0055441 	47773 
720.75 	0.0055441 	48272 
721.25 	0.0055441 	48772 
721.75 	0.0055441 	49271 
722.18 	0.0055441 	49937 
722.68 	0.0055441 	50436 
723.18 	0.0055441 	50769 
723.62 	0.0055441 	51435 
724.12 	0.0055441 	51768 
724.58 	0.0055441 	52434 
725.08 	0.0055441 	52933 
725.58 	0.0055441 	53433 
726.08 	0.0055441 	53932 
726.58 	0.0055441 	54431 
727.02 	0.0055441 	55097 
727.52 	0.0055441 	55597 
728.02 	0.0055441 	56096 
728.52 	0.0055441 	56595 
729.02 	0.0055441 	57095 
729.52 	0.0055441 	57594 
730.00 	0.0055441 	58260 
730.50 	0.0055441 	58759 
731.00 	0.0055441 	59259 
731.50 	0.0055441 	59758 
732.00 	0.0055441 	60257 
732.50 	0.0055441 	60757 
733.00 	0.0055441 	61423 
733.50 	0.0055441 	61922 
734.00 	0.0055441 	62421 
734.50 	0.0055441 	62921 
734.98 	0.0055441 	63586 
735.48 	0.0055441 	63919 
735.88 	0.0055441 	64585 
736.38 	0.0055441 	64918 
736.85 	0.0055441 	65584 
737.35 	0.0055441 	65917 
737.78 	0.0055441 	66583 
738.28 	0.0055441 	66916 
738.72 	0.0055441 	67581 
739.22 	0.0055441 	67914 
739.67 	0.0055441 	68580 
740.17 	0.0055441 	69080 
740.67 	0.0055441 	69579 
741.17 	0.0055441 	70078 
741.67 	0.0055441 	70578 
742.17 	0.0055441 	71244 
742.67 	0.0055441 	71743 
743.17 	0.0055441 	72242 
743.67 	0.0055441 	72742 
744.17 	0.0055441 	73407 
744.67 	0.0055441 	73740 
745.08 	0.0055441 	74406 
745.58 	0.0055441 	74906 
746.08 	0.0055441 	75405 
746.58 	0.0055441 	75904 
747.08 	0.0055441 	76237 
747.43 	0.0055441 	76903 
747.93 	0.0055441 	77236 
748.43 	0.0055441 	77735 
748.88 	0.0055441 	78401 
749.38 	0.0055441 	78734 
749.80 	0.0055441 	79400 
750.30 	0.0055441 	79899 
750.80 	0.0055441 	80399 
751.30 	0.0055441 	80898 
751.80 	0.0055441 	81397 
752.30 	0.0055441 	82063 
752.80 	0.0055441 	82396 
753.22 	0.0055441 	83062 
753.72 	0.0055441 	83395 
754.12 	0.0055441 	84061 
754.62 	0.0055441 	84394 
755.12 	0.0055441 	84893 
755.58 	0.0055441 	85559 
756.08 	0.0055441 	86058 
756.58 	0.0055441 	86391 
756.93 	0.0055441 	87057 
757.43 	0.0055441 	87390 
757.92 	0.0055441 	88056 
758.42 	0.0055441 	88555 
758.92 	0.0055441 	89054 
759.42 	0.0055441 	89720 
759.92 	0.0055441 	90053 
760.42 	0.0055441 	90552 
760.90 	0.0055441 	91218 
761.40 	0.0055441 	91718 
761.90 	0.0055441 	92217 
762.40 	0.0055441 	92883 
762.90 	0.0055441 	93216 
763.37 	0.0055441 	93882 
763.87 	0.0055441 	94381 
764.37 	0.0055441 	94880 
764.87 	0.0055441 	95380 
765.37 	0.0055441 	95879 
765.87 	0.0055441 	96378 
766.30 	0.0055441 	97044 
766.80 	0.0055441 	97377 
767.28 	0.0055441 	98043 
767.78 	0.0055441 	98376 
768.23 	0.0055441 	99042 
768.73 	0.0055441 	99375 
769.17 	0.0055441 	100040 
769.67 	0.0055441 	100370 
770.07 	0.0055441 	101040 
770.57 	0.0055441 	101540 
771.07 	0.0055441 	102040 
771.57 	0.0055441 	102540 
772.07 	0.0055441 	103040 
772.57 	0.0055441 	103540 
773.07 	0.0055441 	104040 
773.53 	0.0055441 	104700 
774.03 	0.0055441 	105200 
774.53 	0.0055441 	105700 
775.03 	0.0055441 	106200 
775.53 	0.0055441 	106870 
776.03 	0.0055441 	107200 
776.50 	0.0055441 	107860 
777.00 	0.0055441 	108360 
777.50 	0.0055441 	108860 
778.00 	0.0055441 	109360 
778.47 	0.0055441 	110030 
778.97 	0.0055441 	110530 
779.47 	0.0055441 	110860 
779.92 	0.0055441 	111530 
780.42 	0.0055441 	111860 
780.87 	0.0055441 	112520 
781.37 	0.0055441 	113020 
781.87 	0.0055441 	113520 
782.37 	0.0055441 	114020 
782.87 	0.0055441 	114520 
783.37 	0.0055441 	115020 
783.82 	0.0055441 	115690 
784.32 	0.0055441 	116020 
784.75 	0.0055441 	116690 
785.25 	0.0055441 	117190 
785.75 	0.0055441 	117680 
786.25 	0.0055441 	118180 
786.75 	0.0055441 	118850 
787.25 	0.0055441 	119180 
787.75 	0.0055441 	119680 
788.23 	0.0055441 	120350 
788.73 	0.0055441 	120850 
789.23 	0.0055441 	121350 
789.73 	0.0055441 	121850 
790.22 	0.0055441 	122510 
790.72 	0.0055441 	123010 
791.22 	0.0055441 	123510 
791.72 	0.0055441 	124010 
792.22 	0.0055441 	124510 
792.72 	0.0055441 	125010 
793.18 	0.0055441 	125670 
793.68 	0.0055441 	126010 
794.18 	0.0055441 	126670 
794.68 	0.0055441 	127170 
795.17 	0.0055441 	127840 
795.67 	0.0055441 	128340 
796.17 	0.0055441 	128670 
796.67 	0.0055441 	129170 
797.17 	0.0055441 	129840 
797.67 	0.0055441 	130340 
798.17 	0.0055441 	130840 
798.67 	0.0055441 	131330 
799.17 	0.0055441 	132000 
799.67 	0.0055441 	132330 
800.17 	0.0055441 	133000 
800.67 	0.0055441 	133500 
801.17 	0.0055441 	134160 
801.67 	0.0055441 	134660 
802.17 	0.0055441 	135160 
802.67 	0.0055441 	135660 
803.17 	0.0055441 	136160 
803.67 	0.0055441 	136660 
804.17 	0.0055441 	137330 
804.67 	0.0055441 	137830 
805.17 	0.0055441 	138330 
805.67 	0.0055441 	138820 
806.17 	0.0055441 	139320 
806.67 	0.0055441 	139990 
807.17 	0.0055441 	140490 
807.67 	0.0055441 	140820 
808.17 	0.0055441 	141490 
808.67 	0.0055441 	142150 
809.17 	0.0055441 	142650 
809.67 	0.0055441 	143150 
810.17 	0.0055441 	143650 
810.67 	0.0055441 	144320 
811.17 	0.0055441 	144650 
811.67 	0.0055441 	145320 
812.17 	0.0055441 	145820 
812.67 	0.0055441 	146320 
813.17 	0.0055441 	146810 
813.67 	0.0055441 	147310 
814.17 	0.0055441 	147980 
814.67 	0.0055441 	148480 
815.17 	0.0055441 	148980 
815.67 	0.0055441 	149640 
816.17 	0.0055441 	150140 
816.67 	0.0055441 	150480 
817.17 	0.0055441 	151140 
817.67 	0.0055441 	151640 
818.17 	0.0055441 	152140 
818.67 	0.0055441 	152640 
819.17 	0.0055441 	153310 
819.67 	0.0055441 	153810 
820.17 	0.0055441 	154470 
820.67 	0.0055441 	154800 
821.17 	0.0055441 	155470 
821.67 	0.0055441 	155800 
822.17 	0.0055441 	156470 
822.67 	0.0055441 	156970 
823.17 	0.0055441 	157470 
823.67 	0.0055441 	157970 
824.17 	0.0055441 	158630 
824.67 	0.0055441 	158970 
825.17 	0.0055441 	159630 
825.67 	0.0055441 	160130 
826.17 	0.0055441 	160630 
826.67 	0.0055441 	161300 
827.17 	0.0055441 	161630 
827.67 	0.0055441 	162300 
828.17 	0.0055441 	162790 
828.67 	0.0055441 	163290 
829.17 	0.0055441 	163960 
829.67 	0.0055441 	164290 
830.17 	0.0055441 	164960 
830.67 	0.0055441 	165460 
830.98 	0.0055441 	164290 
831.00 	0.0055441 	159630 
831.02 	0.0055441 	155140 
831.05 	0.0055441 	156800 
831.12 	0.0055441 	157800 
831.18 	0.0055441 	158970 
831.23 	0.0055441 	159960 
831.28 	0.0055441 	161130 
831.33 	0.0055441 	162130 
831.40 	0.0055441 	163130 
831.48 	0.0055441 	164290 
831.62 	0.0055441 	165290 
831.80 	0.0055441 	166290 
832.30 	0.0055441 	167120 
832.80 	0.0055441 	167620 
833.30 	0.0055441 	168290 
833.80 	0.0055441 	168620 
834.30 	0.0055441 	169120 
834.80 	0.0055441 	169790 
835.30 	0.0055441 	170290 
835.80 	0.0055441 	170950 
836.30 	0.0055441 	171450 
836.80 	0.0055441 	171950 
837.30 	0.0055441 	172620 
837.80 	0.0055441 	173120 
838.30 	0.0055441 	173450 
838.80 	0.0055441 	174110 
839.30 	0.0055441 	174780 
839.80 	0.0055441 	175280 
840.30 	0.0055441 	175780 
840.80 	0.0055441 	176280 
841.30 	0.0055441 	176780 
841.80 	0.0055441 	177440 
842.30 	0.0055441 	177940 
842.80 	0.0055441 	178440 
843.30 	0.0055441 	178940 
843.80 	0.0055441 	179610 
844.30 	0.0055441 	179940 
844.80 	0.0055441 	180610 
845.30 	0.0055441 	181100 
845.80 	0.0055441 	181600 
846.30 	0.0055441 	182100 
846.80 	0.0055441 	182770 
847.30 	0.0055441 	183270 
847.80 	0.0055441 	183770 
848.30 	0.0055441 	184270 
848.80 	0.0055441 	184930 
849.30 	0.0055441 	185270 
849.80 	0.0055441 	185770 
850.30 	0.0055441 	186430 
850.80 	0.0055441 	186930 
851.30 	0.0055441 	187600 
851.80 	0.0055441 	188100 
852.30 	0.0055441 	188600 
852.80 	0.0055441 	189090 
853.30 	0.0055441 	189590 
853.80 	0.0055441 	190090 
854.30 	0.0055441 	190760 
854.80 	0.0055441 	191260 
855.30 	0.0055441 	191760 
855.80 	0.0055441 	192260 
856.30 	0.0055441 	192760 
856.80 	0.0055441 	193420 
857.30 	0.0055441 	193920 
857.80 	0.0055441 	194420 
858.30 	0.0055441 	194920 
858.80 	0.0055441 	195420 
859.30 	0.0055441 	196090 
859.80 	0.0055441 	196420 
860.30 	0.0055441 	197080 
860.80 	0.0055441 	197580 
861.30 	0.0055441 	198250 
861.80 	0.0055441 	198750 
862.30 	0.0055441 	199250 
862.80 	0.0055441 	199750 
863.30 	0.0055441 	200250 
863.80 	0.0055441 	200750 
864.30 	0.0055441 	201250 
864.80 	0.0055441 	201910 
865.30 	0.0055441 	202410 
865.80 	0.0055441 	202910 
866.30 	0.0055441 	203410 
866.80 	0.0055441 	203910 
867.30 	0.0055441 	204580 
867.80 	0.0055441 	205070 
868.30 	0.0055441 	205570 
868.80 	0.0055441 	206070 
869.30 	0.0055441 	206740 
869.80 	0.0055441 	207240 
870.30 	0.0055441 	207740 
870.80 	0.0055441 	208400 
871.30 	0.0055441 	208900 
871.80 	0.0055441 	209240 
872.30 	0.0055441 	209740 
872.80 	0.0055441 	210400 
873.30 	0.0055441 	210900 
873.80 	0.0055441 	211400 
874.30 	0.0055441 	212070 
874.80 	0.0055441 	212400 
875.30 	0.0055441 	213060 
875.80 	0.0055441 	213560 
876.30 	0.0055441 	214060 
876.80 	0.0055441 	214730 
877.30 	0.0055441 	215230 
877.80 	0.0055441 	215730 
878.30 	0.0055441 	216390 
878.80 	0.0055441 	216730 
879.30 	0.0055441 	217230 
879.80 	0.0055441 	217890 
880.30 	0.0055441 	218560 
880.80 	0.0055441 	218890 
881.30 	0.0055441 	219390 
881.80 	0.0055441 	220060 
882.30 	0.0055441 	220560 
882.80 	0.0055441 	221050 
883.30 	0.0055441 	221550 
883.80 	0.0055441 	222220 
884.30 	0.0055441 	222720 
884.80 	0.0055441 	223220 
885.30 	0.0055441 	223720 
885.80 	0.0055441 	224220 
886.30 	0.0055441 	224720 
886.80 	0.0055441 	225380 
887.30 	0.0055441 	225880 
887.80 	0.0055441 	226380 
888.30 	0.0055441 	226880 
888.80 	0.0055441 	227380 
889.30 	0.0055441 	227880 
889.80 	0.0055441 	228550 
890.30 	0.0055441 	229040 
890.80 	0.0055441 	229540 
891.30 	0.0055441 	230040 
891.80 	0.0055441 	230710 
892.30 	0.0055441 	231040 
892.80 	0.0055441 	231710 
893.30 	0.0055441 	232210 
893.80 	0.0055441 	232710 
894.30 	0.0055441 	233210 
894.80 	0.0055441 	233870 
895.30 	0.0055441 	234370 
895.80 	0.0055441 	234870 
896.30 	0.0055441 	235370 
896.80 	0.0055441 	235870 
897.30 	0.0055441 	236540 
897.80 	0.0055441 	237030 
898.30 	0.0055441 	237530 
898.80 	0.0055441 	238200 
899.30 	0.0055441 	238530 
899.80 	0.0055441 	239200 
900.30 	0.0055441 	239700 
900.80 	0.0055441 	240200 
901.30 	0.0055441 	240700 
901.80 	0.0055441 	241200 
902.30 	0.0055441 	241700 
902.80 	0.0055441 	242360 
903.30 	0.0055441 	242860 
903.80 	0.0055441 	243360 
904.30 	0.0055441 	243860 
904.80 	0.0055441 	244530 
905.30 	0.0055441 	245020 
905.80 	0.0055441 	245520 
906.30 	0.0055441 	246020 
906.80 	0.0055441 	246690 
907.30 	0.0055441 	247190 
907.80 	0.0055441 	247690 
908.30 	0.0055441 	248190 
908.80 	0.0055441 	248690 
909.30 	0.0055441 	249350 
909.80 	0.0055441 	249850 
910.30 	0.0055441 	250350 
910.80 	0.0055441 	250850 
911.30 	0.0055441 	251520 
911.80 	0.0055441 	251850 
912.30 	0.0055441 	252510 
912.80 	0.0055441 	253010 
913.30 	0.0055441 	253680 
913.80 	0.0055441 	254180 
914.30 	0.0055441 	254510 
914.80 	0.0055441 	255180 
915.30 	0.0055441 	255680 
915.80 	0.0055441 	256180 
916.30 	0.0055441 	256840 
916.80 	0.0055441 	257340 
917.30 	0.0055441 	257840 
917.80 	0.0055441 	258340 
918.30 	0.0055441 	258840 
918.80 	0.0055441 	259340 
919.30 	0.0055441 	260010 
919.80 	0.0055441 	260500 
920.30 	0.0055441 	261000 
920.80 	0.0055441 	261500 
921.30 	0.0055441 	262000 
921.80 	0.0055441 	262670 
922.30 	0.0055441 	263000 
922.80 	0.0055441 	263670 
923.30 	0.0055441 	264170 
923.80 	0.0055441 	264830 
924.30 	0.0055441 	265170 
924.80 	0.0055441 	265830 
925.30 	0.0055441 	266330 
925.80 	0.0055441 	266830 
926.30 	0.0055441 	267330 
926.80 	0.0055441 	268000 
927.30 	0.0055441 	268330 
927.80 	0.0055441 	268990 
928.30 	0.0055441 	269490 
928.80 	0.0055441 	269990 
929.30 	0.0055441 	270660 
929.80 	0.0055441 	270990 
930.30 	0.0055441 	271660 
930.80 	0.0055441 	272160 
931.30 	0.0055441 	272820 
931.80 	0.0055441 	273320 
932.30 	0.0055441 	273820 
932.80 	0.0055441 	274320 
933.30 	0.0055441 	274820 
933.80 	0.0055441 	275320 
934.30 	0.0055441 	275990 
934.80 	0.0055441 	276480 
935.30 	0.0055441 	276980 
935.80 	0.0055441 	277480 
936.30 	0.0055441 	277980 
936.80 	0.0055441 	278480 
937.30 	0.0055441 	278980 
937.80 	0.0055441 	279810 
938.30 	0.0055441 	280310 
938.80 	0.0055441 	280650 
939.30 	0.0055441 	281310 
939.80 	0.0055441 	281640 
940.30 	0.0055441 	282310 
940.80 	0.0055441 	282810 
941.30 	0.0055441 	283310 
941.80 	0.0055441 	283810 
942.30 	0.0055441 	284470 
942.80 	0.0055441 	284970 
943.30 	0.0055441 	285470 
943.80 	0.0055441 	286140 
944.30 	0.0055441 	286640 
944.80 	0.0055441 	287140 
945.30 	0.0055441 	287470 
945.80 	0.0055441 	288140 
946.30 	0.0055441 	288640 
946.80 	0.0055441 	289140 
947.30 	0.0055441 	289800 
947.80 	0.0055441 	290300 
948.30 	0.0055441 	290800 
948.80 	0.0055441 	291300 
949.30 	0.0055441 	291970 
949.80 	0.0055441 	292460 
950.30 	0.0055441 	293130 
950.80 	0.0055441 	293300 
951.30 	0.0055441 	293960 
951.80 	0.0055441 	294630 
952.30 	0.0055441 	295130 
952.80 	0.0055441 	295630 
953.30 	0.0055441 	296130 
953.80 	0.0055441 	296630 
954.30 	0.0055441 	297290 
954.80 	0.0055441 	297790 
955.30 	0.0055441 	298290 
955.80 	0.0055441 	298790 
956.30 	0.0055441 	299290 
956.80 	0.0055441 	299790 
957.30 	0.0055441 	300450 
957.80 	0.0055441 	300950 
958.30 	0.0055441 	301450 
958.80 	0.0055441 	302120 
959.30 	0.0055441 	302620 
959.80 	0.0055441 	303120 
960.30 	0.0055441 	303620 
960.80 	0.0055441 	304120 
961.30 	0.0055441 	304780 
961.80 	0.0055441 	305120 
962.30 	0.0055441 	305610 
962.80 	0.0055441 	306110 
963.30 	0.0055441 	306780 
963.80 	0.0055441 	307280 
964.30 	0.0055441 	307780 
964.80 	0.0055441 	308280 
965.30 	0.0055441 	308940 
965.80 	0.0055441 	309440 
966.30 	0.0055441 	309940 
966.80 	0.0055441 	310440 
967.30 	0.0055441 	311110 
967.80 	0.0055441 	311610 
968.30 	0.0055441 	312270 
968.80 	0.0055441 	312610 
969.30 	0.0055441 	313110 
969.80 	0.0055441 	313770 
970.30 	0.0055441 	314270 
970.80 	0.0055441 	314770 
971.30 	0.0055441 	315440 
971.80 	0.0055441 	315770 
972.30 	0.0055441 	316430 
972.80 	0.0055441 	316930 
973.30 	0.0055441 	317430 
973.80 	0.0055441 	317930 
974.30 	0.0055441 	318430 
974.80 	0.0055441 	319100 
975.30 	0.0055441 	319600 
975.80 	0.0055441 	320100 
976.30 	0.0055441 	320600 
976.80 	0.0055441 	321100 
977.30 	0.0055441 	321760 
977.80 	0.0055441 	322260 
978.30 	0.0055441 	322760 
978.80 	0.0055441 	323260 
979.30 	0.0055441 	323760 
979.80 	0.0055441 	323920 
980.30 	0.0055441 	324760 
980.80 	0.0055441 	325420 
981.30 	0.0055441 	325260 
981.80 	0.0055441 	326090 
982.30 	0.0055441 	326750 
982.80 	0.0055441 	327090 
983.30 	0.0055441 	327920 
983.80 	0.0055441 	328420 
984.30 	0.0055441 	329090 
984.80 	0.0055441 	329580 
985.30 	0.0055441 	330080 
985.80 	0.0055441 	330580 
986.25 	0.0055441 	326590 
986.27 	0.0055441 	322430 
986.47 	0.0055441 	324920 
986.93 	0.0055441 	327420 
987.23 	0.0055441 	329750 
987.73 	0.0055441 	326590 
987.77 	0.0055441 	278480 
987.78 	0.0055441 	118020 
