Tempo(s)	Deformação(mm)	Força(N)
0.016667 	0.00000 	332.91 
0.51667 	0.00000 	332.91 
1.0167 	0.00000 	665.83 
1.5167 	0.00010662 	1165.2 
2.0167 	0.00031985 	1664.6 
2.5167 	0.00042647 	1997.5 
2.9500 	0.00053309 	2663.3 
3.4500 	0.00063971 	2996.2 
3.9500 	0.00085294 	3495.6 
4.3500 	0.00095956 	4161.4 
4.8500 	0.0011728 	4660.8 
5.3500 	0.0013860 	4993.7 
5.7333 	0.0014927 	5659.5 
6.2333 	0.0015993 	6158.9 
6.7333 	0.0018125 	6824.7 
7.2333 	0.0020257 	7324.1 
7.7333 	0.0022390 	7823.5 
8.2000 	0.0023456 	8489.3 
8.7000 	0.0025588 	8822.2 
9.1667 	0.0026655 	9488.0 
9.6667 	0.0028787 	9987.4 
10.167 	0.0030919 	10487 
10.667 	0.0031985 	10986 
11.167 	0.0033052 	11319 
11.667 	0.0034118 	11652 
12.167 	0.0035184 	11818 
12.550 	0.0036250 	12484 
12.917 	0.0037316 	13150 
13.350 	0.0040515 	13816 
13.850 	0.0042647 	14315 
14.350 	0.0043713 	14815 
14.850 	0.0044780 	15314 
15.350 	0.0046912 	15813 
15.817 	0.0049044 	16479 
16.317 	0.0051177 	16979 
16.700 	0.0052243 	17644 
17.200 	0.0054375 	17977 
17.650 	0.0055441 	18643 
18.150 	0.0056508 	19143 
18.650 	0.0058640 	19642 
19.150 	0.0060772 	20141 
19.650 	0.0061839 	20641 
20.117 	0.0063971 	21306 
20.617 	0.0065037 	21639 
21.117 	0.0067169 	22305 
21.617 	0.0068236 	22638 
22.117 	0.0069302 	22971 
22.617 	0.0070368 	23304 
23.117 	0.0071434 	23304 
23.617 	0.0071434 	23470 
24.117 	0.0071434 	23470 
24.617 	0.0071434 	23470 
25.117 	0.0072500 	23304 
25.617 	0.0071434 	23470 
26.117 	0.0071434 	23470 
26.617 	0.0072500 	23470 
27.117 	0.0071434 	23470 
27.617 	0.0071434 	23470 
28.117 	0.0072500 	23470 
28.617 	0.0072500 	23470 
29.117 	0.0071434 	23470 
29.617 	0.0071434 	23304 
30.117 	0.0071434 	23637 
30.617 	0.0071434 	23470 
31.117 	0.0071434 	23470 
31.617 	0.0072500 	23470 
32.117 	0.0072500 	23470 
32.617 	0.0071434 	23470 
33.117 	0.0071434 	23470 
33.617 	0.0071434 	23470 
34.117 	0.0071434 	23637 
34.617 	0.0071434 	23470 
35.117 	0.0071434 	23470 
35.617 	0.0071434 	23470 
36.117 	0.0071434 	23470 
36.617 	0.0071434 	23470 
37.117 	0.0071434 	23470 
37.617 	0.0071434 	23470 
38.117 	0.0071434 	23470 
38.617 	0.0071434 	23470 
39.117 	0.0071434 	23470 
39.617 	0.0071434 	23470 
40.117 	0.0071434 	23304 
40.617 	0.0071434 	23304 
41.117 	0.0071434 	23637 
41.617 	0.0071434 	23470 
42.117 	0.0071434 	23470 
42.617 	0.0071434 	23470 
43.117 	0.0071434 	23470 
43.617 	0.0071434 	23470 
44.117 	0.0071434 	23637 
44.617 	0.0071434 	23470 
45.117 	0.0071434 	23470 
45.617 	0.0070368 	23470 
46.117 	0.0071434 	23304 
46.617 	0.0071434 	23470 
47.117 	0.0071434 	23470 
47.617 	0.0071434 	23470 
48.117 	0.0071434 	23470 
48.617 	0.0071434 	23470 
49.117 	0.0070368 	23470 
49.617 	0.0070368 	23470 
50.117 	0.0070368 	23470 
50.617 	0.0071434 	23470 
51.117 	0.0070368 	23470 
51.617 	0.0070368 	23304 
52.117 	0.0070368 	23470 
52.617 	0.0070368 	23470 
53.117 	0.0070368 	23470 
53.617 	0.0070368 	23470 
54.117 	0.0070368 	23470 
54.617 	0.0070368 	23470 
55.117 	0.0070368 	23470 
55.617 	0.0070368 	23470 
56.117 	0.0070368 	23470 
56.617 	0.0070368 	23470 
57.117 	0.0070368 	23470 
57.617 	0.0070368 	23470 
58.117 	0.0070368 	23470 
58.617 	0.0070368 	23470 
59.117 	0.0070368 	23470 
59.617 	0.0070368 	23470 
60.117 	0.0070368 	23470 
60.617 	0.0070368 	23470 
61.117 	0.0069302 	23470 
61.617 	0.0070368 	23470 
62.117 	0.0070368 	23470 
62.617 	0.0070368 	23470 
63.117 	0.0069302 	23470 
63.617 	0.0069302 	23470 
64.117 	0.0070368 	23470 
64.617 	0.0069302 	23470 
65.117 	0.0069302 	23470 
65.617 	0.0069302 	23304 
66.117 	0.0069302 	23470 
66.617 	0.0069302 	23637 
67.117 	0.0069302 	23470 
67.617 	0.0069302 	23470 
68.117 	0.0069302 	23470 
68.617 	0.0069302 	23470 
69.117 	0.0069302 	23470 
69.617 	0.0069302 	23470 
70.117 	0.0069302 	23637 
70.617 	0.0069302 	23470 
71.117 	0.0069302 	23470 
71.617 	0.0069302 	23470 
72.117 	0.0069302 	23470 
72.617 	0.0069302 	23470 
73.117 	0.0069302 	23470 
73.617 	0.0069302 	23470 
74.117 	0.0068236 	23470 
74.617 	0.0068236 	23470 
75.117 	0.0069302 	23470 
75.617 	0.0069302 	23470 
76.117 	0.0068236 	23637 
76.617 	0.0068236 	23470 
77.117 	0.0068236 	23470 
77.617 	0.0069302 	23470 
78.117 	0.0069302 	23470 
78.617 	0.0069302 	23470 
79.117 	0.0068236 	23470 
79.617 	0.0068236 	23470 
80.117 	0.0068236 	23470 
80.617 	0.0068236 	23470 
81.117 	0.0068236 	23470 
81.617 	0.0068236 	23470 
82.117 	0.0068236 	23470 
82.617 	0.0068236 	23137 
83.117 	0.0067169 	22805 
83.617 	0.0066103 	22305 
84.000 	0.0063971 	21639 
84.500 	0.0062905 	21306 
84.983 	0.0061839 	20641 
85.483 	0.0059706 	20141 
85.983 	0.0058640 	19808 
86.483 	0.0057574 	19309 
86.983 	0.0056508 	18810 
87.467 	0.0054375 	18144 
87.967 	0.0052243 	17644 
88.467 	0.0051177 	17145 
88.933 	0.0049044 	16479 
89.433 	0.0047978 	16146 
89.933 	0.0045846 	15647 
90.433 	0.0043713 	15148 
90.933 	0.0043713 	14648 
91.433 	0.0041581 	14315 
91.933 	0.0040515 	13982 
92.433 	0.0039449 	13649 
92.883 	0.0037316 	12984 
93.233 	0.0036250 	12318 
93.683 	0.0034118 	11652 
94.183 	0.0030919 	10986 
94.683 	0.0028787 	10653 
95.100 	0.0027721 	9987.4 
95.600 	0.0026655 	9488.0 
96.100 	0.0024522 	8988.7 
96.600 	0.0021324 	8489.3 
97.100 	0.0020257 	7989.9 
97.600 	0.0018125 	7490.6 
98.100 	0.0015993 	6824.7 
98.600 	0.0013860 	6491.8 
99.000 	0.0012794 	5826.0 
99.500 	0.0010662 	5493.1 
99.917 	0.00095956 	4827.2 
100.42 	0.00074633 	4327.9 
100.92 	0.00053309 	3995.0 
101.40 	0.00031985 	3329.1 
101.90 	0.00021324 	2996.2 
102.40 	0.00000 	2663.3 
102.63 	-0.0001068 	1997.5 
103.13 	-0.0003204 	1831.0 
103.63 	-0.0004273 	1498.1 
104.13 	-0.0004273 	1498.1 
104.63 	-0.0005341 	1331.7 
105.13 	-0.0005341 	1498.1 
105.63 	-0.0005341 	1165.2 
106.13 	-0.0005341 	1165.2 
106.63 	-0.0006409 	1165.2 
107.13 	-0.0006409 	998.74 
107.63 	-0.0006409 	1331.7 
108.13 	-0.0006409 	1165.2 
108.63 	-0.0006409 	1165.2 
109.13 	-0.0006409 	1331.7 
109.63 	-0.0006409 	998.74 
110.13 	-0.0006409 	1165.2 
110.63 	-0.0006409 	1165.2 
111.13 	-0.0006409 	998.74 
111.63 	-0.0007478 	1165.2 
112.13 	-0.0007478 	998.74 
112.63 	-0.0006409 	1165.2 
113.13 	-0.0007478 	1165.2 
113.63 	-0.0007478 	1165.2 
114.13 	-0.0007478 	1331.7 
114.63 	-0.0007478 	998.74 
115.13 	-0.0007478 	1165.2 
115.63 	-0.0007478 	1331.7 
116.13 	-0.0007478 	998.74 
116.63 	-0.0007478 	1331.7 
117.13 	-0.0007478 	1165.2 
117.63 	-0.0007478 	1165.2 
118.13 	-0.0007478 	1331.7 
118.63 	-0.0007478 	1165.2 
119.13 	-0.0007478 	1165.2 
119.63 	-0.0007478 	1165.2 
120.13 	-0.0007478 	998.74 
120.63 	-0.0007478 	1165.2 
121.13 	-0.0008546 	1165.2 
121.63 	-0.0007478 	1165.2 
122.13 	-0.0007478 	1165.2 
122.63 	-0.0007478 	998.74 
123.13 	-0.0008546 	1331.7 
123.63 	-0.0008546 	998.74 
124.13 	-0.0007478 	1331.7 
124.63 	-0.0008546 	1165.2 
125.13 	-0.0007478 	1165.2 
125.63 	-0.0007478 	1331.7 
126.13 	-0.0008546 	1165.2 
126.63 	-0.0007478 	1165.2 
127.13 	-0.0007478 	1331.7 
127.63 	-0.0008546 	998.74 
128.13 	-0.0008546 	1165.2 
128.63 	-0.0008546 	998.74 
129.13 	-0.0008546 	1165.2 
129.63 	-0.0008546 	998.74 
130.13 	-0.0008546 	1331.7 
130.63 	-0.0008546 	1165.2 
131.13 	-0.0007478 	1165.2 
131.63 	-0.0008546 	1331.7 
132.13 	-0.0008546 	1165.2 
132.63 	-0.0008546 	1165.2 
133.13 	-0.0008546 	1165.2 
133.63 	-0.0008546 	1165.2 
134.13 	-0.0008546 	1165.2 
134.63 	-0.0008546 	1165.2 
135.13 	-0.0008546 	1331.7 
135.63 	-0.0008546 	998.74 
136.13 	-0.0008546 	1165.2 
136.63 	-0.0008546 	1331.7 
137.13 	-0.0008546 	998.74 
137.63 	-0.0008546 	1165.2 
138.13 	-0.0008546 	1331.7 
138.63 	-0.0008546 	998.74 
139.13 	-0.0007478 	1331.7 
139.63 	-0.0008546 	1165.2 
140.13 	-0.0008546 	1165.2 
140.63 	-0.0008546 	1331.7 
141.13 	-0.0008546 	998.74 
141.63 	-0.0008546 	1331.7 
142.13 	-0.0008546 	1165.2 
142.63 	-0.0008546 	1165.2 
143.13 	-0.0009614 	1331.7 
143.63 	-0.0008546 	1165.2 
144.13 	-0.0008546 	1165.2 
144.63 	-0.0008546 	1165.2 
145.13 	-0.0008546 	1165.2 
145.63 	-0.0008546 	1165.2 
146.13 	-0.0009614 	1165.2 
146.63 	-0.0008546 	1331.7 
147.13 	-0.0008546 	998.74 
147.63 	-0.0008546 	1165.2 
148.13 	-0.0009614 	1165.2 
148.63 	-0.0008546 	1165.2 
149.13 	-0.0009614 	1331.7 
149.63 	-0.0009614 	998.74 
150.13 	-0.0009614 	1165.2 
150.63 	-0.0009614 	1165.2 
151.13 	-0.0009614 	1165.2 
151.63 	-0.0009614 	1331.7 
152.13 	-0.0009614 	998.74 
152.63 	-0.0009614 	1331.7 
153.13 	-0.0009614 	1165.2 
153.63 	-0.0009614 	1165.2 
154.13 	-0.0009614 	1331.7 
154.63 	-0.0009614 	1165.2 
155.13 	-0.0009614 	1331.7 
155.63 	-0.0009614 	1165.2 
156.13 	-0.0009614 	1165.2 
156.63 	-0.0009614 	1165.2 
157.13 	-0.0009614 	1165.2 
157.63 	-0.0009614 	998.74 
158.13 	-0.0009614 	1165.2 
158.63 	-0.0009614 	1165.2 
159.13 	-0.0010683 	998.74 
159.63 	-0.0009614 	1165.2 
160.13 	-0.0009614 	1165.2 
160.63 	-0.0009614 	1165.2 
161.13 	-0.0010683 	1331.7 
161.63 	-0.0009614 	998.74 
162.13 	-0.0010683 	1165.2 
162.63 	-0.0010683 	998.74 
163.13 	-0.0010683 	1331.7 
163.63 	-0.0010683 	998.74 
164.13 	-0.0010683 	1331.7 
164.63 	-0.0010683 	1165.2 
165.13 	-0.0010683 	1165.2 
165.63 	-0.0009614 	1331.7 
166.13 	-0.0009614 	1498.1 
166.62 	-0.0008546 	2163.9 
167.12 	-0.0007478 	2496.9 
167.62 	-0.0005341 	2829.8 
168.07 	-0.0003204 	3495.6 
168.50 	-0.0002136 	4161.4 
169.00 	0.00000 	4660.8 
169.50 	0.00010662 	4993.7 
169.88 	0.00021324 	5659.5 
170.38 	0.00042647 	6158.9 
170.88 	0.00053309 	6658.3 
171.38 	0.00074633 	7157.6 
171.85 	0.00095956 	7823.5 
172.35 	0.0010662 	8156.4 
172.82 	0.0012794 	8822.2 
173.32 	0.0013860 	9321.6 
173.82 	0.0015993 	9820.9 
174.32 	0.0017059 	10320 
174.82 	0.0019191 	10820 
175.32 	0.0020257 	11319 
175.82 	0.0021324 	11652 
176.32 	0.0023456 	11985 
176.82 	0.0023456 	12151 
177.07 	0.0024522 	12817 
177.42 	0.0027721 	13483 
177.90 	0.0029853 	14149 
178.40 	0.0030919 	14648 
178.90 	0.0033052 	14981 
179.35 	0.0034118 	15647 
179.85 	0.0035184 	15980 
180.22 	0.0037316 	16646 
180.72 	0.0039449 	17145 
181.18 	0.0040515 	17811 
181.68 	0.0042647 	18310 
182.18 	0.0044780 	18810 
182.68 	0.0046912 	19309 
183.18 	0.0047978 	19808 
183.68 	0.0049044 	20308 
184.18 	0.0051177 	20974 
184.68 	0.0053309 	21473 
185.18 	0.0054375 	21972 
185.68 	0.0056508 	22305 
186.18 	0.0057574 	22638 
186.68 	0.0058640 	22971 
187.18 	0.0059706 	23304 
187.68 	0.0059706 	23470 
188.18 	0.0060772 	23470 
188.68 	0.0060772 	23637 
189.18 	0.0060772 	23470 
189.68 	0.0060772 	23470 
190.18 	0.0060772 	23470 
190.68 	0.0060772 	23470 
191.18 	0.0060772 	23470 
191.68 	0.0061839 	23470 
192.18 	0.0060772 	23470 
192.68 	0.0060772 	23637 
193.18 	0.0060772 	23470 
193.68 	0.0061839 	23470 
194.18 	0.0061839 	23470 
194.68 	0.0061839 	23470 
195.18 	0.0061839 	23304 
195.68 	0.0061839 	23470 
196.18 	0.0060772 	23470 
196.68 	0.0060772 	23470 
197.18 	0.0060772 	23304 
197.68 	0.0060772 	23470 
198.18 	0.0061839 	23637 
198.68 	0.0061839 	23470 
199.18 	0.0061839 	23470 
199.68 	0.0060772 	23470 
200.18 	0.0061839 	23470 
200.68 	0.0061839 	23470 
201.18 	0.0061839 	23470 
201.68 	0.0060772 	23470 
202.18 	0.0061839 	23470 
202.68 	0.0060772 	23470 
203.18 	0.0061839 	23637 
203.68 	0.0061839 	23470 
204.18 	0.0061839 	23470 
204.68 	0.0060772 	23470 
205.18 	0.0060772 	23470 
205.68 	0.0061839 	23470 
206.18 	0.0060772 	23470 
206.68 	0.0060772 	23470 
207.18 	0.0060772 	23470 
207.68 	0.0060772 	23470 
208.18 	0.0061839 	23470 
208.68 	0.0061839 	23470 
209.18 	0.0060772 	23470 
209.68 	0.0060772 	23470 
210.18 	0.0060772 	23470 
210.68 	0.0061839 	23470 
211.18 	0.0060772 	23470 
211.68 	0.0060772 	23470 
212.18 	0.0061839 	23470 
212.68 	0.0060772 	23470 
213.18 	0.0060772 	23470 
213.68 	0.0060772 	23470 
214.18 	0.0060772 	23470 
214.68 	0.0061839 	23470 
215.18 	0.0060772 	23470 
215.68 	0.0060772 	23470 
216.18 	0.0060772 	23470 
216.68 	0.0060772 	23470 
217.18 	0.0060772 	23470 
217.68 	0.0060772 	23470 
218.18 	0.0060772 	23470 
218.68 	0.0060772 	23470 
219.18 	0.0060772 	23637 
219.68 	0.0060772 	23470 
220.18 	0.0060772 	23470 
220.68 	0.0060772 	23470 
221.18 	0.0060772 	23470 
221.68 	0.0060772 	23470 
222.18 	0.0060772 	23470 
222.68 	0.0060772 	23470 
223.18 	0.0060772 	23470 
223.68 	0.0060772 	23470 
224.18 	0.0060772 	23470 
224.68 	0.0060772 	23470 
225.18 	0.0059706 	23470 
225.68 	0.0060772 	23470 
226.18 	0.0060772 	23470 
226.68 	0.0060772 	23470 
227.18 	0.0060772 	23470 
227.68 	0.0060772 	23304 
228.18 	0.0060772 	23304 
228.68 	0.0060772 	23470 
229.18 	0.0060772 	23637 
229.68 	0.0059706 	23470 
230.18 	0.0060772 	23470 
230.68 	0.0059706 	23470 
231.18 	0.0060772 	23470 
231.68 	0.0060772 	23470 
232.18 	0.0060772 	23470 
232.68 	0.0059706 	23470 
233.18 	0.0060772 	23304 
233.68 	0.0060772 	23470 
234.18 	0.0060772 	23470 
234.68 	0.0060772 	23637 
235.18 	0.0060772 	23470 
235.68 	0.0059706 	23470 
236.18 	0.0060772 	23304 
236.68 	0.0060772 	23470 
237.18 	0.0060772 	23637 
237.68 	0.0059706 	23470 
238.18 	0.0060772 	23470 
238.68 	0.0059706 	23470 
239.18 	0.0059706 	23470 
239.68 	0.0059706 	23470 
240.18 	0.0059706 	23470 
240.68 	0.0059706 	23470 
241.18 	0.0059706 	23470 
241.68 	0.0059706 	23637 
242.18 	0.0059706 	23470 
242.68 	0.0059706 	23470 
243.18 	0.0059706 	23470 
243.68 	0.0059706 	23304 
244.18 	0.0059706 	23470 
244.68 	0.0059706 	23470 
245.18 	0.0059706 	23470 
245.68 	0.0059706 	23470 
246.18 	0.0059706 	23304 
246.68 	0.0059706 	23470 
247.18 	0.0059706 	23137 
247.68 	0.0058640 	22638 
248.08 	0.0056508 	21972 
248.58 	0.0055441 	21473 
249.08 	0.0054375 	20974 
249.58 	0.0052243 	20474 
250.08 	0.0051177 	19975 
250.58 	0.0050111 	19475 
251.08 	0.0049044 	19143 
251.57 	0.0046912 	18477 
252.07 	0.0044780 	17977 
252.55 	0.0043713 	17312 
253.05 	0.0041581 	16812 
253.55 	0.0040515 	16313 
254.05 	0.0038383 	15813 
254.55 	0.0037316 	15314 
255.05 	0.0036250 	14981 
255.55 	0.0034118 	14482 
256.05 	0.0033052 	13982 
256.55 	0.0033052 	13649 
257.05 	0.0030919 	13317 
257.38 	0.0028787 	12651 
257.77 	0.0026655 	11985 
258.27 	0.0025588 	11319 
258.77 	0.0022390 	10820 
259.20 	0.0021324 	10154 
259.70 	0.0020257 	9820.9 
260.20 	0.0017059 	9321.6 
260.63 	0.0015993 	8655.8 
261.13 	0.0013860 	8322.8 
261.62 	0.0011728 	7657.0 
262.12 	0.0010662 	7157.6 
262.62 	0.00085294 	6658.3 
263.12 	0.00063971 	6325.4 
263.50 	0.00042647 	5659.5 
264.00 	0.00021324 	5326.6 
264.43 	0.00010662 	4660.8 
264.93 	-0.0001068 	4327.9 
265.43 	-0.0003204 	3828.5 
265.93 	-0.0004273 	3329.1 
266.43 	-0.0006409 	2829.8 
266.82 	-0.0008546 	2163.9 
267.32 	-0.0009614 	1831.0 
267.82 	-0.0010683 	1498.1 
268.32 	-0.0012820 	1498.1 
268.82 	-0.0011751 	1498.1 
269.32 	-0.0012820 	1331.7 
269.82 	-0.0012820 	1331.7 
270.32 	-0.0012820 	1331.7 
270.82 	-0.0013888 	1165.2 
271.32 	-0.0013888 	1165.2 
271.82 	-0.0013888 	1331.7 
272.32 	-0.0013888 	1331.7 
272.82 	-0.0013888 	998.74 
273.32 	-0.0013888 	1165.2 
273.82 	-0.0013888 	1165.2 
274.32 	-0.0013888 	1165.2 
274.82 	-0.0013888 	1331.7 
275.32 	-0.0013888 	1165.2 
275.82 	-0.0013888 	1165.2 
276.32 	-0.0013888 	1331.7 
276.82 	-0.0013888 	1165.2 
277.32 	-0.0013888 	1165.2 
277.82 	-0.0013888 	1331.7 
278.32 	-0.0013888 	998.74 
278.82 	-0.0013888 	1331.7 
279.32 	-0.0013888 	1165.2 
279.82 	-0.0013888 	1165.2 
280.32 	-0.0014956 	1331.7 
280.82 	-0.0014956 	998.74 
281.32 	-0.0013888 	1331.7 
281.82 	-0.0013888 	998.74 
282.32 	-0.0013888 	1165.2 
282.82 	-0.0013888 	1331.7 
283.32 	-0.0013888 	1165.2 
283.82 	-0.0013888 	1331.7 
284.32 	-0.0014956 	1165.2 
284.82 	-0.0014956 	1165.2 
285.32 	-0.0014956 	1331.7 
285.82 	-0.0014956 	998.74 
286.32 	-0.0014956 	1331.7 
286.82 	-0.0013888 	1165.2 
287.32 	-0.0014956 	1165.2 
287.82 	-0.0014956 	1165.2 
288.32 	-0.0013888 	998.74 
288.82 	-0.0014956 	1331.7 
289.32 	-0.0014956 	1165.2 
289.82 	-0.0014956 	998.74 
290.32 	-0.0013888 	1331.7 
290.82 	-0.0014956 	998.74 
291.32 	-0.0014956 	1165.2 
291.82 	-0.0014956 	1165.2 
292.32 	-0.0014956 	1165.2 
292.82 	-0.0014956 	1165.2 
293.32 	-0.0014956 	998.74 
293.82 	-0.0014956 	1331.7 
294.32 	-0.0014956 	1165.2 
294.82 	-0.0014956 	1165.2 
295.32 	-0.0014956 	1165.2 
295.82 	-0.0014956 	1165.2 
296.32 	-0.0014956 	1165.2 
296.82 	-0.0014956 	998.74 
297.32 	-0.0014956 	1165.2 
297.82 	-0.0014956 	1331.7 
298.32 	-0.0014956 	998.74 
298.82 	-0.0014956 	1165.2 
299.32 	-0.0014956 	998.74 
299.82 	-0.0014956 	1331.7 
300.32 	-0.0014956 	998.74 
300.82 	-0.0014956 	1165.2 
301.32 	-0.0014956 	1331.7 
301.82 	-0.0014956 	998.74 
302.32 	-0.0014956 	1165.2 
302.82 	-0.0016025 	1331.7 
303.32 	-0.0014956 	998.74 
303.82 	-0.0014956 	1165.2 
304.32 	-0.0016025 	1165.2 
304.82 	-0.0014956 	1165.2 
305.32 	-0.0014956 	1165.2 
305.82 	-0.0016025 	998.74 
306.32 	-0.0014956 	1165.2 
306.82 	-0.0014956 	998.74 
307.32 	-0.0016025 	1331.7 
307.82 	-0.0014956 	1165.2 
308.32 	-0.0014956 	1165.2 
308.82 	-0.0016025 	1165.2 
309.32 	-0.0016025 	998.74 
309.82 	-0.0016025 	1165.2 
310.32 	-0.0016025 	998.74 
310.82 	-0.0016025 	1331.7 
311.32 	-0.0016025 	1165.2 
311.82 	-0.0014956 	998.74 
312.32 	-0.0016025 	1165.2 
312.82 	-0.0016025 	1165.2 
313.32 	-0.0016025 	1331.7 
313.82 	-0.0016025 	1165.2 
314.32 	-0.0016025 	1165.2 
314.82 	-0.0016025 	1165.2 
315.32 	-0.0016025 	1165.2 
315.82 	-0.0016025 	1331.7 
316.32 	-0.0016025 	998.74 
316.82 	-0.0016025 	1331.7 
317.32 	-0.0016025 	998.74 
317.82 	-0.0016025 	1165.2 
318.32 	-0.0016025 	1165.2 
318.82 	-0.0016025 	1165.2 
319.32 	-0.0016025 	1331.7 
319.82 	-0.0016025 	1165.2 
320.32 	-0.0016025 	1165.2 
320.82 	-0.0016025 	1331.7 
321.32 	-0.0016025 	998.74 
321.82 	-0.0017093 	1331.7 
322.32 	-0.0016025 	1165.2 
322.82 	-0.0016025 	998.74 
323.32 	-0.0016025 	1331.7 
323.82 	-0.0016025 	1165.2 
324.32 	-0.0016025 	1165.2 
324.82 	-0.0017093 	1331.7 
325.32 	-0.0016025 	998.74 
325.82 	-0.0017093 	1165.2 
326.32 	-0.0016025 	1165.2 
326.82 	-0.0017093 	1165.2 
327.32 	-0.0016025 	1165.2 
327.82 	-0.0016025 	1165.2 
328.32 	-0.0016025 	1165.2 
328.82 	-0.0016025 	998.74 
329.32 	-0.0017093 	1165.2 
329.82 	-0.0016025 	1498.1 
330.32 	-0.0014956 	1831.0 
330.82 	-0.0013888 	2163.9 
331.32 	-0.0011751 	2663.3 
331.73 	-0.0010683 	3329.1 
332.23 	-0.0008546 	3662.0 
332.63 	-0.0007478 	4327.9 
333.13 	-0.0005341 	4660.8 
333.53 	-0.0004273 	5326.6 
334.03 	-0.0002136 	5826.0 
334.53 	-0.0001068 	6158.9 
334.93 	0.00000 	6824.7 
335.43 	0.00021324 	7157.6 
335.88 	0.00031985 	7823.5 
336.38 	0.00053309 	8322.8 
336.88 	0.00074633 	8822.2 
337.38 	0.00085294 	9321.6 
337.88 	0.0010662 	9820.9 
338.37 	0.0011728 	10487 
338.87 	0.0013860 	10820 
339.37 	0.0014927 	11153 
339.87 	0.0015993 	11652 
340.37 	0.0017059 	11985 
340.87 	0.0018125 	12318 
341.18 	0.0020257 	12984 
341.58 	0.0021324 	13649 
342.00 	0.0023456 	14315 
342.50 	0.0025588 	14648 
342.98 	0.0027721 	15314 
343.48 	0.0028787 	15647 
343.98 	0.0029853 	16146 
344.38 	0.0031985 	16812 
344.88 	0.0033052 	17312 
345.30 	0.0035184 	17977 
345.80 	0.0037316 	18310 
346.30 	0.0039449 	18810 
346.75 	0.0040515 	19475 
347.25 	0.0041581 	19975 
347.75 	0.0043713 	20474 
348.25 	0.0045846 	20974 
348.75 	0.0047978 	21473 
349.25 	0.0049044 	21972 
349.75 	0.0050111 	22472 
350.25 	0.0051177 	22805 
350.75 	0.0053309 	23137 
351.25 	0.0053309 	23304 
351.75 	0.0054375 	23470 
352.25 	0.0054375 	23470 
352.75 	0.0054375 	23470 
353.25 	0.0054375 	23470 
353.75 	0.0054375 	23470 
354.25 	0.0054375 	23470 
354.75 	0.0054375 	23470 
355.25 	0.0054375 	23304 
355.75 	0.0054375 	23304 
356.25 	0.0054375 	23470 
356.75 	0.0054375 	23470 
357.25 	0.0055441 	23470 
357.75 	0.0054375 	23470 
358.25 	0.0054375 	23470 
358.75 	0.0054375 	23470 
359.25 	0.0055441 	23470 
359.75 	0.0054375 	23470 
360.25 	0.0055441 	23470 
360.75 	0.0054375 	23470 
361.25 	0.0054375 	23470 
361.75 	0.0055441 	23470 
362.25 	0.0054375 	23470 
362.75 	0.0054375 	23470 
363.25 	0.0054375 	23470 
363.75 	0.0054375 	23470 
364.25 	0.0055441 	23470 
364.75 	0.0054375 	23470 
365.25 	0.0055441 	23470 
365.75 	0.0054375 	23470 
366.25 	0.0054375 	23304 
366.75 	0.0054375 	23470 
367.25 	0.0054375 	23470 
367.75 	0.0054375 	23637 
368.25 	0.0055441 	23470 
368.75 	0.0055441 	23470 
369.25 	0.0054375 	23470 
369.75 	0.0054375 	23470 
370.25 	0.0054375 	23637 
370.75 	0.0054375 	23470 
371.25 	0.0054375 	23470 
371.75 	0.0054375 	23470 
372.25 	0.0054375 	23470 
372.75 	0.0054375 	23470 
373.25 	0.0054375 	23470 
373.75 	0.0054375 	23304 
374.25 	0.0054375 	23470 
374.75 	0.0054375 	23470 
375.25 	0.0054375 	23470 
375.75 	0.0054375 	23470 
376.25 	0.0054375 	23470 
376.75 	0.0054375 	23304 
377.25 	0.0054375 	23470 
377.75 	0.0054375 	23470 
378.25 	0.0054375 	23470 
378.75 	0.0054375 	23470 
379.25 	0.0054375 	23470 
379.75 	0.0055441 	23470 
380.25 	0.0054375 	23470 
380.75 	0.0054375 	23470 
381.25 	0.0054375 	23470 
381.75 	0.0054375 	23470 
382.25 	0.0054375 	23637 
382.75 	0.0054375 	23470 
383.25 	0.0054375 	23470 
383.75 	0.0054375 	23304 
384.25 	0.0054375 	23470 
384.75 	0.0054375 	23470 
385.25 	0.0054375 	23470 
385.75 	0.0054375 	23470 
386.25 	0.0054375 	23470 
386.75 	0.0054375 	23470 
387.25 	0.0054375 	23470 
387.75 	0.0054375 	23470 
388.25 	0.0054375 	23470 
388.75 	0.0054375 	23470 
389.25 	0.0054375 	23470 
389.75 	0.0054375 	23637 
390.25 	0.0054375 	23470 
390.75 	0.0054375 	23470 
391.25 	0.0054375 	23470 
391.75 	0.0054375 	23470 
392.25 	0.0054375 	23470 
392.75 	0.0054375 	23470 
393.25 	0.0054375 	23470 
393.75 	0.0054375 	23304 
394.25 	0.0054375 	23470 
394.75 	0.0054375 	23470 
395.25 	0.0054375 	23470 
395.75 	0.0054375 	23637 
396.25 	0.0054375 	23470 
396.75 	0.0054375 	23470 
397.25 	0.0054375 	23470 
397.75 	0.0054375 	23304 
398.25 	0.0054375 	23470 
398.75 	0.0054375 	23470 
399.25 	0.0054375 	23470 
399.75 	0.0054375 	23470 
400.25 	0.0054375 	23470 
400.75 	0.0054375 	23470 
401.25 	0.0054375 	23470 
401.75 	0.0054375 	23470 
402.25 	0.0054375 	23470 
402.75 	0.0053309 	23470 
403.25 	0.0054375 	23470 
403.75 	0.0054375 	23470 
404.25 	0.0054375 	23470 
404.75 	0.0054375 	23470 
405.25 	0.0054375 	23470 
405.75 	0.0054375 	23470 
406.25 	0.0054375 	23470 
406.75 	0.0054375 	23304 
407.25 	0.0054375 	23470 
407.75 	0.0053309 	23470 
408.25 	0.0053309 	23470 
408.75 	0.0054375 	23470 
409.25 	0.0053309 	23470 
409.75 	0.0053309 	23470 
410.25 	0.0054375 	23470 
410.75 	0.0053309 	23470 
411.25 	0.0053309 	22971 
411.75 	0.0052243 	22638 
412.17 	0.0051177 	21972 
412.67 	0.0049044 	21473 
413.17 	0.0047978 	20807 
413.67 	0.0045846 	20308 
414.17 	0.0044780 	19975 
414.67 	0.0043713 	19642 
415.10 	0.0042647 	18976 
415.60 	0.0041581 	18477 
416.10 	0.0039449 	17811 
416.60 	0.0037316 	17312 
417.10 	0.0036250 	16812 
417.60 	0.0035184 	16313 
418.08 	0.0033052 	15647 
418.58 	0.0031985 	15314 
419.08 	0.0029853 	14815 
419.58 	0.0028787 	14315 
420.08 	0.0027721 	13982 
420.58 	0.0026655 	13816 
421.08 	0.0025588 	13317 
421.37 	0.0023456 	12651 
421.78 	0.0021324 	11985 
422.25 	0.0019191 	11319 
422.75 	0.0017059 	10820 
423.25 	0.0014927 	10320 
423.73 	0.0013860 	9654.5 
424.23 	0.0011728 	9155.1 
424.73 	0.0010662 	8655.8 
425.23 	0.00074633 	8156.4 
425.73 	0.00063971 	7657.0 
426.23 	0.00042647 	7157.6 
426.62 	0.00031985 	6491.8 
427.12 	0.00010662 	6158.9 
427.62 	-0.0001068 	5826.0 
427.97 	-0.0003204 	5160.2 
428.47 	-0.0004273 	4827.2 
428.90 	-0.0005341 	4161.4 
429.40 	-0.0007478 	3995.0 
429.68 	-0.0008546 	3329.1 
430.18 	-0.0010683 	2996.2 
430.68 	-0.0012820 	2663.3 
431.05 	-0.0013888 	1997.5 
431.55 	-0.0016025 	1664.6 
432.05 	-0.0016025 	1498.1 
432.55 	-0.0018161 	1331.7 
433.05 	-0.0017093 	1498.1 
433.55 	-0.0018161 	1165.2 
434.05 	-0.0018161 	1165.2 
434.55 	-0.0019230 	1165.2 
435.05 	-0.0018161 	1165.2 
435.55 	-0.0019230 	1331.7 
436.05 	-0.0019230 	1165.2 
436.55 	-0.0019230 	1165.2 
437.05 	-0.0019230 	1165.2 
437.55 	-0.0018161 	1165.2 
438.05 	-0.0019230 	1331.7 
438.55 	-0.0019230 	1165.2 
439.05 	-0.0018161 	1165.2 
439.55 	-0.0019230 	1165.2 
440.05 	-0.0019230 	1165.2 
440.55 	-0.0019230 	1331.7 
441.05 	-0.0019230 	1165.2 
441.55 	-0.0019230 	1165.2 
442.05 	-0.0019230 	1165.2 
442.55 	-0.0019230 	998.74 
443.05 	-0.0019230 	1165.2 
443.55 	-0.0019230 	1331.7 
444.05 	-0.0018161 	1165.2 
444.55 	-0.0019230 	1165.2 
445.05 	-0.0019230 	1165.2 
445.55 	-0.0019230 	1165.2 
446.05 	-0.0019230 	1165.2 
446.55 	-0.0019230 	1165.2 
447.05 	-0.0019230 	998.74 
447.55 	-0.0019230 	1165.2 
448.05 	-0.0019230 	1165.2 
448.55 	-0.0019230 	998.74 
449.05 	-0.0019230 	1331.7 
449.55 	-0.0019230 	1165.2 
450.05 	-0.0019230 	998.74 
450.55 	-0.0019230 	1165.2 
451.05 	-0.0019230 	998.74 
451.55 	-0.0019230 	1331.7 
452.05 	-0.0019230 	1165.2 
452.55 	-0.0019230 	1165.2 
453.05 	-0.0019230 	1165.2 
453.55 	-0.0019230 	998.74 
454.05 	-0.0019230 	1165.2 
454.55 	-0.0019230 	998.74 
455.05 	-0.0019230 	1331.7 
455.55 	-0.0019230 	1165.2 
456.05 	-0.0020298 	998.74 
456.55 	-0.0019230 	1331.7 
457.05 	-0.0020298 	1165.2 
457.55 	-0.0019230 	998.74 
458.05 	-0.0019230 	1331.7 
458.55 	-0.0019230 	1165.2 
459.05 	-0.0019230 	1165.2 
459.55 	-0.0019230 	1331.7 
460.05 	-0.0019230 	1165.2 
460.55 	-0.0019230 	1165.2 
461.05 	-0.0019230 	1165.2 
461.55 	-0.0019230 	998.74 
462.05 	-0.0019230 	1331.7 
462.55 	-0.0019230 	998.74 
463.05 	-0.0019230 	1165.2 
463.55 	-0.0019230 	1331.7 
464.05 	-0.0020298 	1165.2 
464.55 	-0.0019230 	998.74 
465.05 	-0.0019230 	1331.7 
465.55 	-0.0019230 	998.74 
466.05 	-0.0020298 	1165.2 
466.55 	-0.0019230 	1165.2 
467.05 	-0.0020298 	1165.2 
467.55 	-0.0020298 	1165.2 
468.05 	-0.0020298 	998.74 
468.55 	-0.0019230 	1165.2 
469.05 	-0.0020298 	1331.7 
469.55 	-0.0020298 	998.74 
470.05 	-0.0020298 	1331.7 
470.55 	-0.0019230 	1165.2 
471.05 	-0.0020298 	1165.2 
471.55 	-0.0019230 	1165.2 
472.05 	-0.0019230 	998.74 
472.55 	-0.0020298 	1165.2 
473.05 	-0.0020298 	1331.7 
473.55 	-0.0020298 	998.74 
474.05 	-0.0020298 	1165.2 
474.55 	-0.0019230 	998.74 
475.05 	-0.0020298 	1331.7 
475.55 	-0.0020298 	1165.2 
476.05 	-0.0019230 	1165.2 
476.55 	-0.0020298 	1331.7 
477.05 	-0.0019230 	998.74 
477.55 	-0.0019230 	1331.7 
478.05 	-0.0020298 	1165.2 
478.55 	-0.0020298 	1165.2 
479.05 	-0.0020298 	1165.2 
479.55 	-0.0020298 	998.74 
480.05 	-0.0020298 	1331.7 
480.55 	-0.0020298 	998.74 
481.05 	-0.0020298 	1165.2 
481.55 	-0.0020298 	1165.2 
482.05 	-0.0020298 	1165.2 
482.55 	-0.0020298 	1165.2 
483.05 	-0.0020298 	998.74 
483.55 	-0.0020298 	1165.2 
484.05 	-0.0020298 	1165.2 
484.55 	-0.0020298 	998.74 
485.05 	-0.0020298 	1165.2 
485.55 	-0.0020298 	1165.2 
486.05 	-0.0020298 	1165.2 
486.55 	-0.0020298 	1331.7 
487.05 	-0.0020298 	1165.2 
487.55 	-0.0020298 	1165.2 
488.05 	-0.0020298 	1165.2 
488.55 	-0.0020298 	998.74 
489.05 	-0.0020298 	1331.7 
489.55 	-0.0020298 	998.74 
490.05 	-0.0020298 	1165.2 
490.55 	-0.0020298 	1331.7 
491.05 	-0.0020298 	998.74 
491.55 	-0.0020298 	1331.7 
492.05 	-0.0020298 	1165.2 
492.55 	-0.0020298 	1165.2 
493.05 	-0.0020298 	998.74 
493.13 	-0.0020298 	1165.2 
493.63 	-0.0020298 	1165.2 
494.13 	-0.0020298 	1165.2 
494.63 	-0.0020298 	1331.7 
495.13 	-0.0020298 	998.74 
495.63 	-0.0020298 	1165.2 
496.13 	-0.0020298 	1165.2 
496.63 	-0.0020298 	998.74 
497.13 	-0.0020298 	1331.7 
497.63 	-0.0020298 	998.74 
498.13 	-0.0020298 	1331.7 
498.63 	-0.0020298 	1331.7 
499.13 	-0.0020298 	1165.2 
499.63 	-0.0020298 	1331.7 
500.13 	-0.0020298 	1165.2 
500.63 	-0.0020298 	998.74 
501.13 	-0.0020298 	1331.7 
501.63 	-0.0020298 	998.74 
502.13 	-0.0020298 	1165.2 
502.63 	-0.0020298 	1165.2 
503.13 	-0.0020298 	1165.2 
503.63 	-0.0020298 	1165.2 
504.13 	-0.0020298 	998.74 
504.63 	-0.0020298 	1165.2 
505.13 	-0.0020298 	1165.2 
505.63 	-0.0020298 	1165.2 
506.13 	-0.0020298 	1165.2 
506.63 	-0.0020298 	1165.2 
507.13 	-0.0020298 	1331.7 
507.63 	-0.0020298 	1331.7 
508.13 	-0.0021366 	1165.2 
508.63 	-0.0020298 	1165.2 
509.13 	-0.0020298 	998.74 
509.63 	-0.0020298 	1165.2 
510.13 	-0.0020298 	1165.2 
510.63 	-0.0020298 	1165.2 
511.13 	-0.0020298 	1165.2 
511.63 	-0.0020298 	1165.2 
512.13 	-0.0020298 	1331.7 
512.63 	-0.0020298 	998.74 
513.13 	-0.0020298 	1331.7 
513.63 	-0.0020298 	1165.2 
514.13 	-0.0020298 	1165.2 
514.63 	-0.0020298 	1331.7 
515.13 	-0.0020298 	998.74 
515.63 	-0.0020298 	1165.2 
516.13 	-0.0020298 	1165.2 
516.63 	-0.0020298 	1165.2 
517.13 	-0.0020298 	1165.2 
517.63 	-0.0020298 	1165.2 
518.13 	-0.0020298 	1165.2 
518.63 	-0.0020298 	1165.2 
519.13 	-0.0020298 	1331.7 
519.63 	-0.0020298 	998.74 
520.13 	-0.0020298 	1165.2 
520.63 	-0.0020298 	1165.2 
521.13 	-0.0020298 	1165.2 
521.63 	-0.0020298 	1165.2 
522.13 	-0.0020298 	1165.2 
522.63 	-0.0021366 	1165.2 
523.13 	-0.0020298 	1165.2 
523.63 	-0.0020298 	1331.7 
524.13 	-0.0020298 	1331.7 
524.63 	-0.0020298 	1165.2 
525.13 	-0.0020298 	1664.6 
525.63 	-0.0018161 	1997.5 
526.13 	-0.0017093 	2496.9 
526.62 	-0.0016025 	3162.7 
527.12 	-0.0013888 	3329.1 
527.38 	-0.0012820 	4161.4 
527.88 	-0.0011751 	4327.9 
528.23 	-0.0010683 	4993.7 
528.73 	-0.0007478 	5160.2 
529.00 	-0.0007478 	5826.0 
529.50 	-0.0005341 	6158.9 
529.87 	-0.0004273 	6824.7 
530.37 	-0.0002136 	7157.6 
530.83 	-0.0001068 	7823.5 
531.33 	0.00010662 	8156.4 
531.83 	0.00021324 	8822.2 
532.33 	0.00042647 	9321.6 
532.83 	0.00063971 	9820.9 
533.33 	0.00074633 	10320 
533.83 	0.00095956 	10820 
534.33 	0.0010662 	11153 
534.83 	0.0011728 	11652 
535.33 	0.0012794 	11985 
535.83 	0.0013860 	12484 
536.27 	0.0015993 	13150 
536.65 	0.0018125 	13816 
537.15 	0.0020257 	14315 
537.65 	0.0022390 	14815 
538.15 	0.0023456 	15314 
538.65 	0.0025588 	15813 
539.05 	0.0026655 	16479 
539.55 	0.0028787 	16979 
540.05 	0.0029853 	17644 
540.55 	0.0031985 	18144 
541.05 	0.0034118 	18643 
541.55 	0.0036250 	19143 
542.03 	0.0037316 	19808 
542.53 	0.0039449 	20141 
542.95 	0.0040515 	20807 
543.45 	0.0042647 	21140 
543.95 	0.0043713 	21639 
544.42 	0.0045846 	22305 
544.92 	0.0046912 	22472 
545.42 	0.0049044 	22971 
545.92 	0.0049044 	23304 
546.42 	0.0050111 	23304 
546.92 	0.0050111 	23304 
547.42 	0.0050111 	23470 
547.92 	0.0050111 	23470 
548.42 	0.0051177 	23470 
548.92 	0.0051177 	23470 
549.42 	0.0050111 	23470 
549.92 	0.0051177 	23637 
550.42 	0.0051177 	23470 
550.92 	0.0050111 	23470 
551.42 	0.0051177 	23470 
551.92 	0.0050111 	23470 
552.42 	0.0050111 	23470 
552.92 	0.0051177 	23470 
553.42 	0.0051177 	23470 
553.92 	0.0051177 	23470 
554.42 	0.0050111 	23470 
554.92 	0.0051177 	23470 
555.42 	0.0051177 	23470 
555.92 	0.0051177 	23470 
556.42 	0.0051177 	23470 
556.92 	0.0051177 	23470 
557.42 	0.0051177 	23470 
557.92 	0.0051177 	23637 
558.42 	0.0051177 	23470 
558.92 	0.0051177 	23470 
559.42 	0.0051177 	23470 
559.92 	0.0051177 	23470 
560.42 	0.0051177 	23470 
560.92 	0.0051177 	23470 
561.42 	0.0051177 	23470 
561.92 	0.0051177 	23637 
562.42 	0.0051177 	23470 
562.92 	0.0051177 	23470 
563.42 	0.0051177 	23470 
563.92 	0.0051177 	23470 
564.42 	0.0051177 	23470 
564.92 	0.0051177 	23470 
565.42 	0.0051177 	23470 
565.92 	0.0051177 	23470 
566.42 	0.0051177 	23470 
566.92 	0.0051177 	23470 
567.42 	0.0051177 	23470 
567.92 	0.0051177 	23304 
568.42 	0.0051177 	23470 
568.92 	0.0051177 	23470 
569.42 	0.0051177 	23470 
569.92 	0.0051177 	23470 
570.42 	0.0051177 	23470 
570.92 	0.0051177 	23470 
571.42 	0.0051177 	23470 
571.92 	0.0051177 	23470 
572.42 	0.0051177 	23470 
572.92 	0.0051177 	23470 
573.42 	0.0051177 	23470 
573.92 	0.0051177 	23470 
574.42 	0.0051177 	23470 
574.92 	0.0051177 	23470 
575.42 	0.0051177 	23470 
575.92 	0.0051177 	23637 
576.42 	0.0051177 	23470 
576.92 	0.0051177 	23470 
577.42 	0.0051177 	23470 
577.92 	0.0051177 	23470 
578.42 	0.0051177 	23470 
578.92 	0.0051177 	23470 
579.42 	0.0051177 	23637 
579.92 	0.0051177 	23637 
580.42 	0.0051177 	23470 
580.92 	0.0051177 	23470 
581.42 	0.0050111 	23304 
581.92 	0.0051177 	23470 
582.42 	0.0051177 	23637 
582.92 	0.0051177 	23470 
583.42 	0.0051177 	23304 
583.92 	0.0051177 	23470 
584.42 	0.0051177 	23470 
584.92 	0.0051177 	23637 
585.42 	0.0051177 	23637 
585.92 	0.0051177 	23470 
586.42 	0.0051177 	23470 
586.92 	0.0051177 	23304 
587.42 	0.0051177 	23637 
587.92 	0.0051177 	23470 
588.42 	0.0051177 	23470 
588.92 	0.0051177 	23304 
589.42 	0.0051177 	23470 
589.92 	0.0051177 	23470 
590.42 	0.0051177 	23637 
590.92 	0.0051177 	23470 
591.42 	0.0051177 	23470 
591.92 	0.0051177 	23470 
592.42 	0.0051177 	23304 
592.92 	0.0051177 	23470 
593.42 	0.0051177 	23470 
593.92 	0.0051177 	23470 
594.42 	0.0051177 	23470 
594.92 	0.0050111 	23470 
595.42 	0.0051177 	23470 
595.92 	0.0051177 	23470 
596.42 	0.0050111 	23470 
596.92 	0.0051177 	23470 
597.42 	0.0050111 	23637 
597.92 	0.0051177 	23470 
598.42 	0.0051177 	23470 
598.92 	0.0050111 	23470 
599.42 	0.0051177 	23470 
599.92 	0.0051177 	23470 
600.42 	0.0051177 	23470 
600.92 	0.0051177 	23470 
601.42 	0.0051177 	23470 
601.92 	0.0051177 	23470 
602.42 	0.0050111 	23470 
602.92 	0.0051177 	23470 
603.42 	0.0051177 	23470 
603.92 	0.0050111 	23470 
604.42 	0.0050111 	23470 
604.92 	0.0051177 	23470 
605.32 	0.0051177 	23470 
605.82 	0.0050111 	23470 
606.32 	0.0051177 	23470 
606.82 	0.0050111 	23470 
607.32 	0.0051177 	23470 
607.82 	0.0050111 	23470 
608.32 	0.0051177 	23470 
608.82 	0.0051177 	23470 
609.32 	0.0051177 	23470 
609.82 	0.0051177 	23470 
610.32 	0.0050111 	23304 
610.82 	0.0051177 	23470 
611.32 	0.0050111 	23470 
611.82 	0.0050111 	23470 
612.32 	0.0050111 	23470 
612.82 	0.0051177 	23470 
613.32 	0.0051177 	23470 
613.82 	0.0051177 	23470 
614.32 	0.0050111 	23470 
614.82 	0.0051177 	23470 
615.32 	0.0050111 	23470 
615.82 	0.0051177 	23470 
616.32 	0.0050111 	23637 
616.82 	0.0051177 	23470 
617.32 	0.0050111 	23470 
617.82 	0.0050111 	23470 
618.32 	0.0050111 	23470 
618.82 	0.0051177 	23470 
619.32 	0.0050111 	23304 
619.82 	0.0050111 	23470 
620.32 	0.0051177 	23304 
620.82 	0.0051177 	23470 
621.32 	0.0051177 	23470 
621.82 	0.0050111 	23637 
622.32 	0.0051177 	23470 
622.82 	0.0050111 	23470 
623.32 	0.0050111 	23470 
623.82 	0.0050111 	23470 
624.32 	0.0050111 	23470 
624.82 	0.0050111 	23470 
625.32 	0.0050111 	23470 
625.82 	0.0050111 	23470 
626.32 	0.0050111 	23470 
626.82 	0.0050111 	23470 
627.32 	0.0050111 	23470 
627.82 	0.0050111 	23470 
628.32 	0.0050111 	23470 
628.82 	0.0050111 	23470 
629.32 	0.0051177 	23470 
629.82 	0.0050111 	23470 
630.32 	0.0050111 	23470 
630.82 	0.0051177 	23470 
631.32 	0.0051177 	23470 
631.82 	0.0050111 	23470 
632.32 	0.0051177 	23470 
632.82 	0.0050111 	23470 
633.32 	0.0051177 	23470 
633.82 	0.0050111 	23470 
634.32 	0.0051177 	23470 
634.82 	0.0050111 	23470 
635.32 	0.0050111 	23304 
635.82 	0.0050111 	23470 
636.32 	0.0050111 	23304 
636.82 	0.0050111 	23470 
637.32 	0.0050111 	23470 
637.82 	0.0050111 	23637 
638.32 	0.0050111 	23470 
638.82 	0.0050111 	23470 
639.32 	0.0050111 	23470 
639.82 	0.0050111 	23470 
640.32 	0.0050111 	23470 
640.82 	0.0050111 	23470 
641.32 	0.0050111 	23470 
641.82 	0.0050111 	23470 
642.32 	0.0050111 	23470 
642.82 	0.0050111 	23470 
643.32 	0.0050111 	23304 
643.82 	0.0050111 	23470 
644.32 	0.0050111 	23470 
644.82 	0.0050111 	23470 
645.32 	0.0050111 	23637 
645.82 	0.0050111 	23470 
646.32 	0.0050111 	23637 
646.82 	0.0050111 	23637 
647.32 	0.0050111 	23470 
647.82 	0.0050111 	23470 
648.32 	0.0050111 	23470 
648.82 	0.0050111 	23470 
649.32 	0.0050111 	23470 
649.82 	0.0050111 	23637 
650.32 	0.0050111 	23470 
650.82 	0.0050111 	23470 
651.32 	0.0050111 	23470 
651.82 	0.0050111 	23470 
652.32 	0.0050111 	23470 
652.82 	0.0050111 	23470 
653.32 	0.0050111 	23304 
653.82 	0.0050111 	23470 
654.32 	0.0050111 	23637 
654.82 	0.0050111 	23470 
655.32 	0.0050111 	23304 
655.82 	0.0050111 	23470 
656.32 	0.0050111 	23470 
656.82 	0.0050111 	23470 
657.32 	0.0050111 	23470 
657.82 	0.0050111 	23470 
658.32 	0.0050111 	23470 
658.82 	0.0050111 	23470 
659.32 	0.0050111 	23470 
659.82 	0.0050111 	23304 
660.32 	0.0050111 	23470 
660.82 	0.0050111 	23304 
661.32 	0.0050111 	23304 
661.82 	0.0050111 	23470 
662.32 	0.0050111 	23470 
662.82 	0.0050111 	23470 
663.32 	0.0050111 	23470 
663.82 	0.0050111 	23470 
664.32 	0.0050111 	23470 
664.82 	0.0050111 	23637 
665.32 	0.0050111 	23470 
665.82 	0.0050111 	23470 
666.32 	0.0050111 	23470 
666.82 	0.0050111 	23470 
667.32 	0.0050111 	23470 
667.82 	0.0050111 	23470 
668.32 	0.0050111 	23470 
668.82 	0.0050111 	23470 
669.32 	0.0050111 	23470 
669.82 	0.0050111 	23470 
670.32 	0.0050111 	23470 
670.82 	0.0050111 	23470 
671.32 	0.0050111 	23470 
671.82 	0.0050111 	23470 
672.32 	0.0050111 	23470 
672.82 	0.0050111 	23470 
673.32 	0.0050111 	23470 
673.82 	0.0050111 	23470 
674.32 	0.0050111 	23470 
674.82 	0.0050111 	23470 
675.32 	0.0050111 	23470 
675.82 	0.0050111 	23470 
676.32 	0.0050111 	23470 
676.82 	0.0050111 	23470 
677.32 	0.0050111 	23470 
677.82 	0.0050111 	23470 
678.32 	0.0050111 	23470 
678.82 	0.0050111 	23470 
679.32 	0.0050111 	23470 
679.82 	0.0050111 	23470 
680.32 	0.0050111 	23470 
680.82 	0.0050111 	23470 
681.32 	0.0050111 	23470 
681.82 	0.0050111 	23470 
682.32 	0.0050111 	23637 
682.82 	0.0050111 	23470 
683.32 	0.0050111 	23470 
683.82 	0.0050111 	23470 
684.32 	0.0050111 	23470 
684.82 	0.0050111 	23470 
685.32 	0.0050111 	23470 
685.82 	0.0050111 	23470 
686.32 	0.0050111 	23470 
686.82 	0.0050111 	23470 
687.32 	0.0050111 	23470 
687.82 	0.0050111 	23470 
688.32 	0.0050111 	23470 
688.82 	0.0050111 	23470 
689.32 	0.0050111 	23470 
689.82 	0.0050111 	23470 
690.32 	0.0050111 	23637 
690.82 	0.0050111 	23470 
691.32 	0.0050111 	23304 
691.82 	0.0050111 	23304 
692.32 	0.0050111 	23470 
692.82 	0.0050111 	23470 
693.32 	0.0050111 	23470 
693.82 	0.0050111 	23470 
694.32 	0.0050111 	23470 
694.82 	0.0050111 	23470 
695.32 	0.0050111 	23637 
695.82 	0.0050111 	23470 
696.32 	0.0050111 	23470 
696.82 	0.0050111 	23304 
697.32 	0.0050111 	23470 
697.82 	0.0050111 	23470 
698.32 	0.0050111 	23470 
698.82 	0.0050111 	23470 
699.32 	0.0050111 	23470 
699.82 	0.0050111 	23470 
700.32 	0.0050111 	23637 
700.82 	0.0050111 	23803 
701.32 	0.0050111 	24303 
701.82 	0.0050111 	24636 
702.32 	0.0050111 	24969 
702.67 	0.0050111 	25634 
703.17 	0.0050111 	25967 
703.67 	0.0050111 	26467 
704.17 	0.0050111 	26966 
704.65 	0.0050111 	27632 
705.15 	0.0050111 	28131 
705.65 	0.0050111 	28631 
706.15 	0.0050111 	28963 
706.65 	0.0050111 	29463 
706.98 	0.0050111 	30129 
707.43 	0.0050111 	30795 
707.93 	0.0050111 	31294 
708.43 	0.0050111 	31793 
708.83 	0.0050111 	32459 
709.33 	0.0050111 	32958 
709.83 	0.0050111 	33458 
710.33 	0.0050111 	34124 
710.83 	0.0050111 	34457 
711.33 	0.0050111 	34956 
711.82 	0.0050111 	35622 
712.32 	0.0050111 	36121 
712.82 	0.0050111 	36620 
713.32 	0.0050111 	37286 
713.82 	0.0050111 	37619 
714.32 	0.0050111 	38285 
714.82 	0.0050111 	38784 
715.32 	0.0050111 	39284 
715.82 	0.0050111 	39783 
716.27 	0.0050111 	40449 
716.77 	0.0050111 	40782 
717.20 	0.0050111 	41448 
717.70 	0.0050111 	41947 
718.20 	0.0050111 	42446 
718.70 	0.0050111 	42946 
719.20 	0.0050111 	43612 
719.70 	0.0050111 	43945 
720.12 	0.0050111 	44610 
720.62 	0.0050111 	44943 
721.12 	0.0050111 	45443 
721.50 	0.0050111 	46109 
722.00 	0.0050111 	46441 
722.50 	0.0050111 	46941 
722.97 	0.0050111 	47607 
723.47 	0.0050111 	47940 
723.87 	0.0050111 	48605 
724.37 	0.0050111 	48938 
724.87 	0.0050111 	49438 
725.33 	0.0050111 	50103 
725.83 	0.0050111 	50603 
726.33 	0.0050111 	51102 
726.83 	0.0050111 	51602 
727.33 	0.0050111 	52101 
727.77 	0.0050111 	52767 
728.27 	0.0050111 	53100 
728.70 	0.0050111 	53766 
729.20 	0.0050111 	54098 
729.62 	0.0050111 	54764 
730.12 	0.0050111 	55097 
730.60 	0.0050111 	55763 
731.10 	0.0050111 	56262 
731.60 	0.0050111 	56762 
732.10 	0.0050111 	57261 
732.60 	0.0050111 	57761 
733.07 	0.0050111 	58426 
733.57 	0.0050111 	58926 
734.07 	0.0050111 	59425 
734.57 	0.0050111 	59924 
735.07 	0.0050111 	60424 
735.57 	0.0050111 	60923 
736.02 	0.0050111 	61589 
736.52 	0.0050111 	62088 
737.02 	0.0050111 	62588 
737.52 	0.0050111 	63087 
738.02 	0.0050111 	63586 
738.48 	0.0050111 	64252 
738.98 	0.0050111 	64585 
739.45 	0.0050111 	65251 
739.95 	0.0050111 	65750 
740.45 	0.0050111 	66250 
740.95 	0.0050111 	66749 
741.40 	0.0050111 	67415 
741.90 	0.0050111 	67748 
742.40 	0.0050111 	68247 
742.85 	0.0050111 	68913 
743.35 	0.0050111 	69412 
743.85 	0.0050111 	70078 
744.35 	0.0050111 	70411 
744.85 	0.0050111 	70911 
745.35 	0.0050111 	71410 
745.80 	0.0050111 	72076 
746.30 	0.0050111 	72575 
746.80 	0.0050111 	73075 
747.30 	0.0050111 	73574 
747.80 	0.0050111 	74073 
748.27 	0.0050111 	74739 
748.77 	0.0050111 	75072 
749.22 	0.0050111 	75738 
749.72 	0.0050111 	76237 
750.22 	0.0050111 	76737 
750.72 	0.0050111 	77236 
751.22 	0.0050111 	77735 
751.72 	0.0050111 	78401 
752.22 	0.0050111 	78734 
752.67 	0.0050111 	79400 
753.17 	0.0050111 	79899 
753.67 	0.0050111 	80399 
754.17 	0.0050111 	80898 
754.67 	0.0050111 	81397 
755.08 	0.0050111 	82063 
755.58 	0.0050111 	82396 
756.08 	0.0050111 	82895 
756.52 	0.0050111 	83561 
757.02 	0.0050111 	84061 
757.52 	0.0050111 	84560 
758.02 	0.0050111 	85059 
758.52 	0.0050111 	85559 
759.00 	0.0050111 	86225 
759.50 	0.0050111 	86558 
759.95 	0.0050111 	87223 
760.45 	0.0050111 	87723 
760.95 	0.0050111 	88222 
761.45 	0.0050111 	88721 
761.95 	0.0050111 	89221 
762.43 	0.0050111 	89887 
762.93 	0.0050111 	90386 
763.43 	0.0050111 	90885 
763.93 	0.0050111 	91385 
764.43 	0.0050111 	91884 
764.93 	0.0050111 	92384 
765.38 	0.0050111 	93049 
765.88 	0.0050111 	93549 
766.38 	0.0050111 	94048 
766.88 	0.0050111 	94547 
767.38 	0.0050111 	95047 
767.88 	0.0050111 	95713 
768.38 	0.0050111 	96212 
768.88 	0.0050111 	96711 
769.38 	0.0050111 	97211 
769.88 	0.0050111 	97710 
770.37 	0.0050111 	98376 
770.87 	0.0050111 	98709 
771.35 	0.0050111 	99375 
771.85 	0.0050111 	99874 
772.35 	0.0050111 	100370 
772.85 	0.0050111 	100870 
773.33 	0.0050111 	101540 
773.83 	0.0050111 	102040 
774.33 	0.0050111 	102540 
774.83 	0.0050111 	103040 
775.28 	0.0050111 	103700 
775.78 	0.0050111 	104040 
776.28 	0.0050111 	104530 
776.72 	0.0050111 	105200 
777.22 	0.0050111 	105700 
777.72 	0.0050111 	106200 
778.22 	0.0050111 	106700 
778.72 	0.0050111 	107200 
779.22 	0.0050111 	107860 
779.72 	0.0050111 	108360 
780.22 	0.0050111 	108860 
780.72 	0.0050111 	109360 
781.22 	0.0050111 	110030 
781.72 	0.0050111 	110360 
782.13 	0.0050111 	111030 
782.63 	0.0050111 	111360 
783.13 	0.0050111 	111860 
783.62 	0.0050111 	112520 
784.12 	0.0050111 	113020 
784.62 	0.0050111 	113520 
785.12 	0.0050111 	114020 
785.62 	0.0050111 	114520 
786.07 	0.0050111 	115190 
786.57 	0.0050111 	115690 
787.07 	0.0050111 	116190 
787.57 	0.0050111 	116690 
788.03 	0.0050111 	117350 
788.53 	0.0050111 	117680 
789.03 	0.0050111 	118180 
789.53 	0.0050111 	118680 
789.98 	0.0050111 	119350 
790.48 	0.0050111 	119680 
790.93 	0.0050111 	120350 
791.43 	0.0050111 	120850 
791.93 	0.0050111 	121350 
792.43 	0.0050111 	121850 
792.90 	0.0050111 	122510 
793.40 	0.0050111 	123010 
793.90 	0.0050111 	123510 
794.40 	0.0050111 	124010 
794.90 	0.0050111 	124510 
795.40 	0.0050111 	125010 
795.90 	0.0050111 	125510 
796.35 	0.0050111 	126170 
796.85 	0.0050111 	126670 
797.35 	0.0050111 	127170 
797.85 	0.0050111 	127670 
798.35 	0.0050111 	128170 
798.85 	0.0050111 	128840 
799.35 	0.0050111 	129340 
799.85 	0.0050111 	129840 
800.35 	0.0050111 	130340 
800.85 	0.0050111 	130840 
801.35 	0.0050111 	131330 
801.85 	0.0050111 	132000 
802.35 	0.0050111 	132500 
802.85 	0.0050111 	133000 
803.35 	0.0050111 	133500 
803.85 	0.0050111 	134160 
804.35 	0.0050111 	134660 
804.85 	0.0050111 	135160 
805.35 	0.0050111 	135660 
805.85 	0.0050111 	136330 
806.35 	0.0050111 	136830 
806.85 	0.0050111 	137330 
807.35 	0.0050111 	137830 
807.85 	0.0050111 	138490 
808.35 	0.0050111 	138820 
808.85 	0.0050111 	139490 
809.35 	0.0050111 	139990 
809.85 	0.0050111 	140660 
810.35 	0.0050111 	140990 
810.85 	0.0050111 	141490 
811.35 	0.0050111 	142150 
811.85 	0.0050111 	142650 
812.35 	0.0050111 	143150 
812.85 	0.0050111 	143650 
813.35 	0.0050111 	144320 
813.85 	0.0050111 	144820 
814.35 	0.0050111 	145320 
814.85 	0.0050111 	145820 
815.35 	0.0050111 	146320 
815.85 	0.0050111 	146980 
816.35 	0.0050111 	147480 
816.85 	0.0050111 	147980 
817.35 	0.0050111 	148480 
817.85 	0.0050111 	149150 
818.35 	0.0050111 	149640 
818.85 	0.0050111 	150140 
819.35 	0.0050111 	150640 
819.85 	0.0050111 	151140 
820.35 	0.0050111 	151810 
820.85 	0.0050111 	152310 
821.35 	0.0050111 	152970 
821.85 	0.0050111 	153310 
822.35 	0.0050111 	153810 
822.85 	0.0050111 	154470 
823.35 	0.0050111 	154970 
823.85 	0.0050111 	155640 
824.35 	0.0050111 	156140 
824.85 	0.0050111 	156470 
825.35 	0.0050111 	157140 
825.85 	0.0050111 	157630 
826.35 	0.0050111 	158300 
826.85 	0.0050111 	158630 
827.35 	0.0050111 	159300 
827.85 	0.0050111 	159800 
828.35 	0.0050111 	160300 
828.85 	0.0050111 	160800 
829.35 	0.0050111 	161300 
829.85 	0.0050111 	161800 
830.35 	0.0050111 	162630 
830.85 	0.0050111 	162960 
831.35 	0.0050111 	163460 
831.85 	0.0050111 	163960 
832.35 	0.0050111 	164630 
832.85 	0.0050111 	165130 
833.35 	0.0050111 	165620 
833.85 	0.0050111 	166120 
834.35 	0.0050111 	166790 
834.85 	0.0050111 	167290 
835.35 	0.0050111 	167790 
835.85 	0.0050111 	168290 
836.35 	0.0050111 	168790 
836.85 	0.0050111 	169450 
837.35 	0.0050111 	169950 
837.85 	0.0050111 	170450 
838.35 	0.0050111 	170950 
838.85 	0.0050111 	171620 
839.35 	0.0050111 	172120 
839.85 	0.0050111 	172620 
840.35 	0.0050111 	173120 
840.85 	0.0050111 	173610 
841.35 	0.0050111 	174110 
841.85 	0.0050111 	174780 
842.35 	0.0050111 	175280 
842.85 	0.0050111 	175780 
843.35 	0.0050111 	176280 
843.85 	0.0050111 	176940 
844.35 	0.0050111 	177440 
844.85 	0.0050111 	177940 
845.35 	0.0050111 	178440 
845.85 	0.0050111 	178940 
846.35 	0.0050111 	179610 
846.85 	0.0050111 	180110 
847.35 	0.0050111 	180610 
847.85 	0.0050111 	181100 
848.35 	0.0050111 	181770 
848.85 	0.0050111 	182270 
849.35 	0.0050111 	182770 
849.85 	0.0050111 	183270 
850.35 	0.0050111 	183770 
850.85 	0.0050111 	184430 
851.35 	0.0050111 	184930 
851.85 	0.0050111 	185430 
852.35 	0.0050111 	185930 
852.85 	0.0050111 	186430 
853.35 	0.0050111 	186930 
853.85 	0.0050111 	187600 
854.35 	0.0050111 	188100 
854.85 	0.0050111 	188760 
855.35 	0.0050111 	189090 
855.85 	0.0050111 	189590 
856.35 	0.0050111 	190260 
856.85 	0.0050111 	190760 
857.35 	0.0050111 	191260 
857.85 	0.0050111 	191920 
858.35 	0.0050111 	192420 
858.85 	0.0050111 	192920 
859.35 	0.0050111 	193420 
859.85 	0.0050111 	193920 
860.35 	0.0050111 	194590 
860.85 	0.0050111 	195090 
861.35 	0.0050111 	195590 
861.85 	0.0050111 	196090 
862.35 	0.0050111 	196750 
862.85 	0.0050111 	197250 
863.35 	0.0050111 	197750 
863.85 	0.0050111 	198250 
864.35 	0.0050111 	198750 
864.85 	0.0050111 	199250 
865.35 	0.0050111 	199910 
865.85 	0.0050111 	200410 
866.35 	0.0050111 	200910 
866.85 	0.0050111 	201410 
867.35 	0.0050111 	202080 
867.85 	0.0050111 	202580 
868.35 	0.0050111 	203080 
868.85 	0.0050111 	203580 
869.35 	0.0050111 	204240 
869.85 	0.0050111 	204580 
870.35 	0.0050111 	205070 
870.85 	0.0050111 	205740 
871.35 	0.0050111 	206240 
871.85 	0.0050111 	206740 
872.35 	0.0050111 	207240 
872.85 	0.0050111 	207900 
873.35 	0.0050111 	208400 
873.85 	0.0050111 	208900 
874.35 	0.0050111 	209570 
874.85 	0.0050111 	210070 
875.35 	0.0050111 	210570 
875.85 	0.0050111 	211070 
876.35 	0.0050111 	211570 
876.85 	0.0050111 	212230 
877.35 	0.0050111 	212730 
877.85 	0.0050111 	213230 
878.35 	0.0050111 	213730 
878.85 	0.0050111 	214400 
879.35 	0.0050111 	214730 
879.85 	0.0050111 	215400 
880.35 	0.0050111 	215890 
880.85 	0.0050111 	216390 
881.35 	0.0050111 	217060 
881.85 	0.0050111 	217560 
882.35 	0.0050111 	218060 
882.85 	0.0050111 	218560 
883.35 	0.0050111 	219060 
883.85 	0.0050111 	219720 
884.35 	0.0050111 	220220 
884.85 	0.0050111 	220720 
885.35 	0.0050111 	221220 
885.85 	0.0050111 	221720 
886.35 	0.0050111 	222390 
886.85 	0.0050111 	222890 
887.35 	0.0050111 	223380 
887.85 	0.0050111 	223880 
888.35 	0.0050111 	224550 
888.85 	0.0050111 	225050 
889.35 	0.0050111 	225550 
889.85 	0.0050111 	226050 
890.35 	0.0050111 	226550 
890.85 	0.0050111 	227210 
891.35 	0.0050111 	227710 
891.85 	0.0050111 	228050 
892.35 	0.0050111 	228880 
892.85 	0.0050111 	229380 
893.35 	0.0050111 	229710 
893.85 	0.0050111 	230380 
894.35 	0.0050111 	230880 
894.85 	0.0050111 	231540 
895.35 	0.0050111 	231870 
895.85 	0.0050111 	232540 
896.35 	0.0050111 	233040 
896.85 	0.0050111 	233540 
897.35 	0.0050111 	234040 
897.85 	0.0050111 	234700 
898.35 	0.0050111 	235200 
898.85 	0.0050111 	235700 
899.35 	0.0050111 	236200 
899.85 	0.0050111 	236700 
900.35 	0.0050111 	237370 
900.85 	0.0050111 	237870 
901.35 	0.0050111 	238370 
901.85 	0.0050111 	238870 
902.35 	0.0050111 	239360 
902.85 	0.0050111 	240030 
903.35 	0.0050111 	240530 
903.85 	0.0050111 	241030 
904.35 	0.0050111 	241700 
904.85 	0.0050111 	242190 
905.35 	0.0050111 	242690 
905.85 	0.0050111 	243190 
906.35 	0.0050111 	243690 
906.85 	0.0050111 	244190 
907.35 	0.0050111 	244860 
907.85 	0.0050111 	245360 
908.35 	0.0050111 	245860 
908.85 	0.0050111 	246360 
909.35 	0.0050111 	246860 
909.85 	0.0050111 	247350 
910.35 	0.0050111 	248020 
910.85 	0.0050111 	248520 
911.35 	0.0050111 	249020 
911.85 	0.0050111 	249520 
912.35 	0.0050111 	250020 
912.85 	0.0050111 	250680 
913.35 	0.0050111 	251180 
913.85 	0.0050111 	251680 
914.35 	0.0050111 	252180 
914.85 	0.0050111 	252680 
915.35 	0.0050111 	253350 
915.85 	0.0050111 	254010 
916.35 	0.0050111 	254350 
916.85 	0.0050111 	254850 
917.35 	0.0050111 	255510 
917.85 	0.0050111 	256010 
918.35 	0.0050111 	256510 
918.85 	0.0050111 	257010 
919.35 	0.0050111 	257680 
919.85 	0.0050111 	258170 
920.35 	0.0050111 	258670 
920.85 	0.0050111 	259340 
921.35 	0.0050111 	259670 
921.85 	0.0050111 	260340 
922.35 	0.0050111 	260840 
922.85 	0.0050111 	261340 
923.35 	0.0050111 	261840 
923.85 	0.0050111 	262500 
924.35 	0.0050111 	263000 
924.85 	0.0050111 	263500 
925.35 	0.0050111 	264000 
925.85 	0.0050111 	264670 
926.35 	0.0050111 	265170 
926.85 	0.0050111 	265500 
927.35 	0.0050111 	266160 
927.85 	0.0050111 	266660 
928.35 	0.0050111 	267160 
928.85 	0.0050111 	267830 
929.35 	0.0050111 	268330 
929.85 	0.0050111 	268830 
930.35 	0.0050111 	269330 
930.85 	0.0050111 	269830 
931.35 	0.0050111 	270490 
931.85 	0.0050111 	270990 
932.35 	0.0050111 	271490 
932.85 	0.0050111 	271990 
933.35 	0.0050111 	272490 
933.85 	0.0050111 	273160 
934.35 	0.0050111 	273650 
934.85 	0.0050111 	274150 
935.35 	0.0050111 	274650 
935.85 	0.0050111 	275320 
936.35 	0.0050111 	275820 
936.85 	0.0050111 	276320 
937.35 	0.0050111 	276820 
937.85 	0.0050111 	277480 
938.35 	0.0050111 	277980 
938.85 	0.0050111 	278480 
939.35 	0.0050111 	278980 
939.85 	0.0050111 	279650 
940.13 	0.0050111 	275320 
940.32 	0.0050111 	277320 
940.50 	0.0050111 	279310 
941.00 	0.0050111 	280810 
941.50 	0.0050111 	281310 
942.00 	0.0050111 	281810 
942.50 	0.0050111 	282310 
943.00 	0.0050111 	282980 
943.50 	0.0050111 	283480 
944.00 	0.0050111 	283980 
944.50 	0.0050111 	284470 
945.00 	0.0050111 	284970 
945.50 	0.0050111 	285640 
946.00 	0.0050111 	286140 
946.50 	0.0050111 	286640 
947.00 	0.0050111 	287140 
947.50 	0.0050111 	287800 
948.00 	0.0050111 	288300 
948.50 	0.0050111 	288800 
949.00 	0.0050111 	289300 
949.50 	0.0050111 	289800 
950.00 	0.0050111 	290470 
950.50 	0.0050111 	290970 
951.00 	0.0050111 	291470 
951.50 	0.0050111 	291970 
952.00 	0.0050111 	292630 
952.50 	0.0050111 	292960 
953.00 	0.0050111 	293630 
953.50 	0.0050111 	294130 
954.00 	0.0050111 	294630 
954.50 	0.0050111 	295130 
955.00 	0.0050111 	295630 
955.50 	0.0050111 	296290 
956.00 	0.0050111 	296790 
956.50 	0.0050111 	297290 
957.00 	0.0050111 	297790 
957.50 	0.0050111 	298290 
958.00 	0.0050111 	298960 
958.50 	0.0050111 	299460 
959.00 	0.0050111 	299960 
959.50 	0.0050111 	300620 
960.00 	0.0050111 	300950 
960.50 	0.0050111 	301620 
961.00 	0.0050111 	302120 
961.50 	0.0050111 	302780 
962.00 	0.0050111 	303280 
962.50 	0.0050111 	303780 
963.00 	0.0050111 	304280 
963.50 	0.0050111 	304780 
964.00 	0.0050111 	305280 
964.50 	0.0050111 	305950 
965.00 	0.0050111 	306450 
965.50 	0.0050111 	306950 
966.00 	0.0050111 	307450 
966.50 	0.0050111 	307950 
967.00 	0.0050111 	308610 
967.50 	0.0050111 	309110 
968.00 	0.0050111 	309610 
968.50 	0.0050111 	310280 
969.00 	0.0050111 	310770 
969.50 	0.0050111 	311270 
970.00 	0.0050111 	311770 
970.50 	0.0050111 	312270 
971.00 	0.0050111 	312770 
971.50 	0.0050111 	313270 
972.00 	0.0050111 	313940 
972.50 	0.0050111 	314440 
973.00 	0.0050111 	314940 
973.50 	0.0050111 	315440 
974.00 	0.0050111 	316100 
974.50 	0.0050111 	316600 
975.00 	0.0050111 	317100 
975.50 	0.0050111 	317600 
976.00 	0.0050111 	318270 
976.50 	0.0050111 	318760 
977.00 	0.0050111 	319260 
977.50 	0.0050111 	319760 
978.00 	0.0050111 	320430 
978.50 	0.0050111 	320760 
979.00 	0.0050111 	321430 
979.50 	0.0050111 	321930 
980.00 	0.0050111 	322430 
980.50 	0.0050111 	323090 
981.00 	0.0050111 	323590 
981.50 	0.0050111 	324090 
982.00 	0.0050111 	324590 
982.50 	0.0050111 	325090 
983.00 	0.0050111 	325760 
983.50 	0.0050111 	326260 
984.00 	0.0050111 	326750 
984.50 	0.0050111 	326590 
985.00 	0.0050111 	327750 
985.50 	0.0050111 	328250 
986.00 	0.0050111 	328920 
986.50 	0.0050111 	329420 
987.00 	0.0050111 	329920 
987.50 	0.0050111 	330580 
988.00 	0.0050111 	330920 
988.50 	0.0050111 	331580 
989.00 	0.0050111 	332080 
989.50 	0.0050111 	332580 
990.00 	0.0050111 	333080 
990.50 	0.0050111 	333580 
991.00 	0.0050111 	334250 
991.50 	0.0050111 	334910 
992.00 	0.0050111 	335410 
992.50 	0.0050111 	335740 
993.00 	0.0050111 	336410 
993.50 	0.0050111 	336910 
994.00 	0.0050111 	337410 
994.50 	0.0050111 	338070 
995.00 	0.0050111 	338410 
995.50 	0.0050111 	339070 
996.00 	0.0050111 	339570 
996.50 	0.0050111 	340070 
997.00 	0.0050111 	340570 
997.50 	0.0050111 	341240 
998.00 	0.0050111 	341740 
998.50 	0.0050111 	342240 
999.00 	0.0050111 	342730 
999.50 	0.0050111 	343230 
1000.0 	0.0050111 	343900 
1000.5 	0.0050111 	344400 
1001.0 	0.0050111 	344900 
1001.5 	0.0050111 	345400 
1002.0 	0.0050111 	346060 
1002.5 	0.0050111 	346400 
1003.0 	0.0050111 	347060 
1003.5 	0.0050111 	347730 
1004.0 	0.0050111 	348060 
1004.5 	0.0050111 	348730 
1005.0 	0.0050111 	349230 
1005.5 	0.0050111 	349730 
1006.0 	0.0050111 	350230 
1006.5 	0.0050111 	350720 
1007.0 	0.0050111 	351220 
1007.5 	0.0050111 	351890 
1008.0 	0.0050111 	352390 
1008.5 	0.0050111 	352890 
1009.0 	0.0050111 	353390 
1009.5 	0.0050111 	353890 
1010.0 	0.0050111 	354550 
1010.5 	0.0050111 	355050 
1011.0 	0.0050111 	355550 
1011.5 	0.0050111 	356220 
1012.0 	0.0050111 	356720 
1012.5 	0.0050111 	357220 
1013.0 	0.0050111 	357720 
1013.5 	0.0050111 	358210 
1014.0 	0.0050111 	358710 
1014.5 	0.0050111 	359380 
1015.0 	0.0050111 	359880 
1015.5 	0.0050111 	360380 
1016.0 	0.0050111 	361040 
1016.5 	0.0050111 	361540 
1017.0 	0.0050111 	362040 
1017.5 	0.0050111 	362540 
1018.0 	0.0050111 	363040 
1018.5 	0.0050111 	363540 
1019.0 	0.0050111 	364210 
1019.5 	0.0050111 	364710 
1020.0 	0.0050111 	365210 
1020.5 	0.0050111 	365710 
1021.0 	0.0050111 	366370 
1021.5 	0.0050111 	366870 
1022.0 	0.0050111 	367370 
1022.5 	0.0050111 	367870 
1023.0 	0.0050111 	368370 
1023.5 	0.0050111 	369030 
1024.0 	0.0050111 	369530 
1024.5 	0.0050111 	370030 
1025.0 	0.0050111 	370530 
1025.5 	0.0050111 	371030 
1026.0 	0.0050111 	371700 
1026.5 	0.0050111 	372200 
1027.0 	0.0050111 	372700 
1027.5 	0.0050111 	373200 
1028.0 	0.0050111 	373700 
1028.5 	0.0050111 	374360 
1029.0 	0.0050111 	374860 
1029.5 	0.0050111 	375360 
1030.0 	0.0050111 	376030 
1030.5 	0.0050111 	376360 
1031.0 	0.0050111 	377020 
1031.5 	0.0050111 	377520 
1032.0 	0.0050111 	378020 
1032.5 	0.0050111 	378520 
1033.0 	0.0050111 	379190 
1033.5 	0.0050111 	379690 
1034.0 	0.0050111 	380190 
1034.5 	0.0050111 	380690 
1035.0 	0.0050111 	381350 
1035.5 	0.0050111 	381850 
1036.0 	0.0050111 	382350 
1036.5 	0.0050111 	382850 
1037.0 	0.0050111 	383520 
1037.5 	0.0050111 	383850 
1038.0 	0.0050111 	384520 
1038.5 	0.0050111 	385010 
1039.0 	0.0050111 	385510 
1039.5 	0.0050111 	386010 
1040.0 	0.0050111 	386680 
1040.5 	0.0050111 	387180 
1041.0 	0.0050111 	387680 
1041.5 	0.0050111 	388180 
1042.0 	0.0050111 	388680 
1042.5 	0.0050111 	389340 
1043.0 	0.0050111 	389840 
1043.5 	0.0050111 	390340 
1044.0 	0.0050111 	390840 
1044.5 	0.0050111 	391340 
1045.0 	0.0050111 	392010 
1045.5 	0.0050111 	392510 
1046.0 	0.0050111 	393000 
1046.5 	0.0050111 	393670 
1047.0 	0.0050111 	394170 
1047.5 	0.0050111 	394670 
1048.0 	0.0050111 	395170 
1048.5 	0.0050111 	395670 
1049.0 	0.0050111 	396170 
1049.5 	0.0050111 	396670 
1050.0 	0.0050111 	397330 
1050.5 	0.0050111 	398000 
1051.0 	0.0050111 	398330 
1051.5 	0.0050111 	398830 
1052.0 	0.0050111 	399500 
1052.5 	0.0050111 	400000 
1053.0 	0.0050111 	400500 
1053.5 	0.0050111 	400990 
1054.0 	0.0050111 	401490 
1054.5 	0.0050111 	401990 
1055.0 	0.0050111 	402490 
1055.5 	0.0050111 	402330 
1055.8 	0.0050111 	397670 
1055.8 	0.0050111 	391340 
1055.9 	0.0050111 	381520 
1055.9 	0.0050111 	359710 
1055.9 	0.0050111 	345900 
1055.9 	0.0050111 	342240 
1055.9 	0.0050111 	336240 
1055.9 	0.0050111 	327420 
1056.0 	0.0050111 	321590 
1056.0 	0.0050111 	313440 
1056.0 	0.0050111 	227880 
