Tempo(s)	Deformação(mm)	Força(N)
0.016667 	0.00000 	332.91 
0.51667 	0.00000 	332.91 
1.0167 	0.00000 	665.83 
1.5167 	0.00010662 	998.74 
2.0167 	0.00021324 	1498.1 
2.5167 	0.00042647 	1997.5 
3.0167 	0.00053309 	2330.4 
3.5167 	0.00074633 	2829.8 
4.0167 	0.00095956 	3162.7 
4.5167 	0.0010662 	3495.6 
5.0167 	0.0010662 	3662.0 
5.5167 	0.0011728 	3662.0 
6.0167 	0.0011728 	3828.5 
6.5167 	0.0011728 	4161.4 
7.0000 	0.0013860 	4827.2 
7.4333 	0.0017059 	5493.1 
7.9333 	0.0018125 	5826.0 
8.4333 	0.0019191 	5826.0 
8.7167 	0.0020257 	6491.8 
9.2167 	0.0023456 	6991.2 
9.5500 	0.0025588 	7657.0 
9.9333 	0.0028787 	8322.8 
10.333 	0.0031985 	8988.7 
10.833 	0.0035184 	9654.5 
11.233 	0.0038383 	10320 
11.633 	0.0040515 	10986 
12.100 	0.0044780 	11652 
12.600 	0.0046912 	12151 
12.950 	0.0050111 	12817 
13.450 	0.0053309 	13317 
13.867 	0.0055441 	13982 
14.367 	0.0057574 	14482 
14.867 	0.0060772 	14981 
15.367 	0.0062905 	15480 
15.867 	0.0065037 	15980 
16.367 	0.0067169 	16313 
16.867 	0.0068236 	16812 
17.367 	0.0070368 	17312 
17.867 	0.0072500 	17811 
18.250 	0.0075699 	18477 
18.733 	0.0077831 	19143 
19.233 	0.0081030 	19642 
19.683 	0.0083162 	20308 
20.183 	0.0085294 	20807 
20.683 	0.0086361 	20807 
21.183 	0.0087427 	20974 
21.683 	0.0087427 	21140 
22.183 	0.0087427 	21140 
22.683 	0.0088493 	21140 
23.183 	0.0088493 	20974 
23.683 	0.0088493 	21140 
24.183 	0.0088493 	21140 
24.683 	0.0088493 	21140 
25.183 	0.0088493 	21140 
25.683 	0.0088493 	21140 
26.183 	0.0088493 	21140 
26.683 	0.0088493 	21140 
27.183 	0.0088493 	21140 
27.683 	0.0088493 	21140 
28.183 	0.0088493 	21140 
28.683 	0.0088493 	21140 
29.183 	0.0088493 	20974 
29.683 	0.0088493 	21140 
30.183 	0.0088493 	21140 
30.683 	0.0088493 	21140 
31.183 	0.0088493 	21140 
31.683 	0.0088493 	21140 
32.183 	0.0088493 	20974 
32.683 	0.0088493 	21140 
33.183 	0.0088493 	21140 
33.683 	0.0088493 	20974 
34.183 	0.0088493 	21140 
34.683 	0.0088493 	21140 
35.183 	0.0088493 	21140 
35.683 	0.0088493 	21306 
36.183 	0.0088493 	21140 
36.683 	0.0088493 	20974 
37.183 	0.0088493 	20974 
37.683 	0.0088493 	21140 
38.183 	0.0088493 	21140 
38.683 	0.0088493 	21140 
39.183 	0.0088493 	21140 
39.683 	0.0088493 	21140 
40.183 	0.0088493 	21140 
40.683 	0.0088493 	21306 
41.183 	0.0088493 	20974 
41.683 	0.0088493 	21140 
42.183 	0.0088493 	21140 
42.683 	0.0088493 	21306 
43.183 	0.0087427 	21140 
43.683 	0.0088493 	20974 
44.183 	0.0088493 	21140 
44.683 	0.0088493 	21140 
45.183 	0.0088493 	21140 
45.683 	0.0088493 	21140 
46.183 	0.0088493 	21140 
46.683 	0.0088493 	21140 
47.183 	0.0088493 	21140 
47.683 	0.0088493 	21140 
48.183 	0.0088493 	21140 
48.683 	0.0088493 	21140 
49.183 	0.0088493 	21140 
49.683 	0.0088493 	21140 
50.183 	0.0088493 	20974 
50.683 	0.0088493 	20974 
51.183 	0.0088493 	21140 
51.683 	0.0088493 	20974 
52.183 	0.0088493 	21140 
52.683 	0.0088493 	21140 
53.183 	0.0088493 	21140 
53.683 	0.0088493 	21140 
54.183 	0.0088493 	20974 
54.683 	0.0088493 	20974 
55.183 	0.0088493 	21140 
55.683 	0.0088493 	21306 
56.183 	0.0088493 	21140 
56.683 	0.0088493 	21140 
57.183 	0.0088493 	21140 
57.683 	0.0088493 	21140 
58.183 	0.0088493 	21140 
58.683 	0.0088493 	21140 
59.183 	0.0088493 	21140 
59.683 	0.0088493 	21140 
60.183 	0.0088493 	21140 
60.683 	0.0088493 	21140 
61.183 	0.0088493 	21140 
61.683 	0.0087427 	20974 
62.183 	0.0088493 	21140 
62.683 	0.0088493 	21306 
63.183 	0.0088493 	21140 
63.683 	0.0088493 	21140 
64.183 	0.0088493 	21306 
64.683 	0.0088493 	21140 
65.183 	0.0088493 	21140 
65.683 	0.0089559 	21140 
66.183 	0.0088493 	21140 
66.683 	0.0088493 	21140 
67.183 	0.0088493 	21140 
67.683 	0.0088493 	21140 
68.183 	0.0089559 	21306 
68.683 	0.0089559 	21140 
69.183 	0.0088493 	21140 
69.683 	0.0088493 	20974 
70.183 	0.0088493 	21140 
70.683 	0.0088493 	21140 
71.183 	0.0088493 	21306 
71.683 	0.0088493 	21140 
72.183 	0.0088493 	21140 
72.683 	0.0088493 	21140 
73.183 	0.0089559 	21140 
73.683 	0.0089559 	21140 
74.183 	0.0088493 	21140 
74.683 	0.0088493 	21140 
75.183 	0.0089559 	21140 
75.683 	0.0088493 	21140 
76.183 	0.0088493 	21306 
76.683 	0.0088493 	21140 
77.183 	0.0088493 	21140 
77.683 	0.0088493 	21140 
78.183 	0.0088493 	21140 
78.683 	0.0088493 	21140 
79.183 	0.0088493 	20974 
79.683 	0.0088493 	21140 
80.183 	0.0088493 	21140 
80.683 	0.0088493 	21140 
81.183 	0.0087427 	20474 
81.683 	0.0085294 	20141 
82.150 	0.0083162 	19475 
82.650 	0.0081030 	19143 
83.150 	0.0079964 	18810 
83.650 	0.0076765 	18477 
84.100 	0.0075699 	17811 
84.600 	0.0074633 	17644 
85.100 	0.0072500 	17312 
85.300 	0.0071434 	16646 
85.783 	0.0067169 	16146 
86.183 	0.0066103 	15480 
86.683 	0.0062905 	14981 
87.167 	0.0060772 	14315 
87.667 	0.0058640 	13982 
88.083 	0.0056508 	13317 
88.583 	0.0054375 	12984 
88.967 	0.0052243 	12318 
89.467 	0.0050111 	11985 
89.967 	0.0047978 	11652 
90.333 	0.0045846 	10986 
90.833 	0.0043713 	10820 
91.033 	0.0042647 	10154 
91.533 	0.0040515 	9987.4 
92.033 	0.0038383 	9321.6 
92.533 	0.0036250 	8822.2 
93.033 	0.0034118 	8322.8 
93.533 	0.0031985 	7823.5 
94.033 	0.0029853 	7657.0 
94.367 	0.0028787 	6991.2 
94.867 	0.0027721 	6658.3 
95.367 	0.0025588 	6325.4 
95.867 	0.0023456 	5826.0 
96.367 	0.0022390 	5326.6 
96.867 	0.0020257 	4827.2 
97.367 	0.0018125 	4660.8 
97.867 	0.0015993 	4161.4 
98.367 	0.0014927 	3828.5 
98.867 	0.0013860 	3662.0 
99.367 	0.0012794 	3495.6 
99.867 	0.0011728 	3329.1 
100.37 	0.0011728 	2996.2 
100.87 	0.0010662 	3162.7 
101.37 	0.0011728 	2996.2 
101.87 	0.0010662 	2996.2 
102.37 	0.0010662 	2996.2 
102.87 	0.0011728 	2663.3 
103.37 	0.0011728 	2663.3 
103.87 	0.0010662 	2829.8 
104.37 	0.0010662 	2663.3 
104.87 	0.0010662 	2496.9 
105.37 	0.00085294 	2163.9 
105.87 	0.00074633 	1997.5 
106.37 	0.00063971 	1831.0 
106.87 	0.00053309 	1664.6 
107.37 	0.00053309 	1498.1 
107.87 	0.00042647 	1498.1 
108.37 	0.00042647 	1498.1 
108.87 	0.00042647 	1331.7 
109.37 	0.00031985 	1165.2 
109.87 	0.00031985 	1165.2 
110.37 	0.00031985 	1165.2 
110.87 	0.00031985 	1165.2 
111.37 	0.00031985 	1165.2 
111.87 	0.00042647 	1165.2 
112.37 	0.00031985 	1165.2 
112.87 	0.00031985 	1165.2 
113.37 	0.00031985 	1331.7 
113.87 	0.00031985 	1165.2 
114.37 	0.00031985 	1165.2 
114.87 	0.00031985 	1165.2 
115.37 	0.00042647 	1331.7 
115.87 	0.00031985 	1165.2 
116.37 	0.00031985 	1165.2 
116.87 	0.00031985 	1165.2 
117.37 	0.00031985 	998.74 
117.87 	0.00031985 	1165.2 
118.37 	0.00031985 	1165.2 
118.87 	0.00031985 	1165.2 
119.37 	0.00031985 	1165.2 
119.87 	0.00031985 	1165.2 
120.37 	0.00031985 	1165.2 
120.87 	0.00031985 	1165.2 
121.37 	0.00031985 	1165.2 
121.87 	0.00031985 	1165.2 
122.37 	0.00031985 	1165.2 
122.87 	0.00031985 	1165.2 
123.37 	0.00031985 	1165.2 
123.87 	0.00031985 	1165.2 
124.37 	0.00031985 	1331.7 
124.87 	0.00031985 	1331.7 
125.37 	0.00031985 	1165.2 
125.87 	0.00031985 	1165.2 
126.37 	0.00031985 	1165.2 
126.87 	0.00031985 	1165.2 
127.37 	0.00031985 	1165.2 
127.87 	0.00031985 	1165.2 
128.37 	0.00031985 	1165.2 
128.87 	0.00031985 	1165.2 
129.37 	0.00031985 	1165.2 
129.87 	0.00031985 	1165.2 
130.37 	0.00031985 	1165.2 
130.87 	0.00031985 	1165.2 
131.37 	0.00031985 	1165.2 
131.87 	0.00021324 	1165.2 
132.37 	0.00031985 	1165.2 
132.87 	0.00031985 	1331.7 
133.37 	0.00031985 	1165.2 
133.87 	0.00031985 	1165.2 
134.37 	0.00021324 	1165.2 
134.87 	0.00031985 	1165.2 
135.37 	0.00021324 	1165.2 
135.87 	0.00031985 	1165.2 
136.37 	0.00031985 	1165.2 
136.87 	0.00021324 	1165.2 
137.37 	0.00031985 	1165.2 
137.87 	0.00031985 	1331.7 
138.37 	0.00021324 	1331.7 
138.87 	0.00031985 	1165.2 
139.37 	0.00031985 	1165.2 
139.87 	0.00031985 	1165.2 
140.37 	0.00031985 	1165.2 
140.87 	0.00021324 	998.74 
141.37 	0.00021324 	1165.2 
141.87 	0.00031985 	1165.2 
142.37 	0.00031985 	1331.7 
142.87 	0.00031985 	1331.7 
143.37 	0.00031985 	998.74 
143.87 	0.00031985 	1165.2 
144.37 	0.00031985 	1165.2 
144.87 	0.00021324 	1165.2 
145.37 	0.00021324 	1165.2 
145.87 	0.00021324 	1165.2 
146.37 	0.00031985 	1165.2 
146.87 	0.00031985 	1165.2 
147.37 	0.00021324 	1165.2 
147.87 	0.00021324 	1165.2 
148.37 	0.00021324 	1165.2 
148.87 	0.00031985 	1165.2 
149.37 	0.00031985 	1165.2 
149.87 	0.00031985 	1165.2 
150.37 	0.00021324 	1165.2 
150.87 	0.00031985 	1331.7 
151.37 	0.00031985 	1165.2 
151.87 	0.00031985 	1165.2 
152.37 	0.00031985 	1165.2 
152.87 	0.00021324 	1165.2 
153.37 	0.00021324 	1165.2 
153.87 	0.00031985 	1331.7 
154.37 	0.00031985 	1165.2 
154.87 	0.00021324 	1165.2 
155.37 	0.00031985 	1165.2 
155.87 	0.00031985 	1331.7 
156.37 	0.00031985 	1331.7 
156.87 	0.00031985 	1165.2 
157.37 	0.00031985 	1165.2 
157.87 	0.00031985 	1165.2 
158.37 	0.00031985 	1165.2 
158.87 	0.00031985 	1165.2 
159.37 	0.00021324 	1165.2 
159.87 	0.00031985 	1165.2 
160.37 	0.00021324 	1165.2 
160.87 	0.00031985 	1331.7 
161.37 	0.00031985 	1165.2 
161.87 	0.00021324 	1165.2 
162.37 	0.00031985 	1165.2 
162.87 	0.00031985 	1165.2 
163.37 	0.00031985 	1498.1 
163.87 	0.00031985 	1831.0 
164.37 	0.00053309 	2163.9 
164.87 	0.00063971 	2663.3 
165.37 	0.00074633 	2996.2 
165.87 	0.00095956 	3329.1 
166.37 	0.0010662 	3495.6 
166.87 	0.0011728 	3662.0 
167.37 	0.0010662 	3828.5 
167.87 	0.0010662 	3995.0 
168.37 	0.0011728 	4327.9 
168.78 	0.0013860 	4993.7 
169.25 	0.0017059 	5659.5 
169.75 	0.0018125 	5992.4 
170.25 	0.0019191 	6158.9 
170.75 	0.0021324 	6658.3 
171.18 	0.0024522 	7324.1 
171.52 	0.0026655 	7989.9 
171.92 	0.0029853 	8655.8 
172.33 	0.0033052 	9321.6 
172.73 	0.0036250 	9987.4 
173.23 	0.0038383 	10653 
173.72 	0.0042647 	11319 
174.18 	0.0045846 	11985 
174.68 	0.0049044 	12484 
175.10 	0.0051177 	13150 
175.53 	0.0053309 	13816 
176.03 	0.0056508 	14315 
176.53 	0.0059706 	14815 
177.03 	0.0061839 	15480 
177.53 	0.0063971 	15813 
178.03 	0.0066103 	16146 
178.53 	0.0067169 	16479 
178.95 	0.0069302 	17145 
179.45 	0.0072500 	17644 
179.87 	0.0074633 	18310 
180.37 	0.0077831 	18810 
180.73 	0.0079964 	19475 
181.23 	0.0082096 	19975 
181.73 	0.0085294 	20474 
182.23 	0.0086361 	20807 
182.73 	0.0087427 	20974 
183.23 	0.0087427 	20974 
183.73 	0.0088493 	21140 
184.23 	0.0088493 	20974 
184.73 	0.0088493 	21140 
185.23 	0.0088493 	21306 
185.73 	0.0089559 	21140 
186.23 	0.0088493 	20974 
186.73 	0.0088493 	21140 
187.23 	0.0088493 	21140 
187.73 	0.0088493 	21140 
188.23 	0.0089559 	21140 
188.73 	0.0088493 	21140 
189.23 	0.0089559 	21140 
189.73 	0.0088493 	21140 
190.23 	0.0088493 	20974 
190.73 	0.0089559 	21140 
191.23 	0.0088493 	21140 
191.73 	0.0088493 	21140 
192.23 	0.0088493 	21140 
192.73 	0.0089559 	21140 
193.23 	0.0089559 	21140 
193.73 	0.0089559 	21140 
194.23 	0.0089559 	21140 
194.73 	0.0089559 	21140 
195.23 	0.0089559 	21140 
195.73 	0.0089559 	21306 
196.23 	0.0089559 	21140 
196.73 	0.0089559 	21140 
197.23 	0.0089559 	21140 
197.73 	0.0089559 	21140 
198.23 	0.0089559 	21306 
198.73 	0.0089559 	21306 
199.23 	0.0089559 	21140 
199.73 	0.0089559 	20974 
200.23 	0.0089559 	21140 
200.73 	0.0089559 	21140 
201.23 	0.0089559 	21140 
201.73 	0.0088493 	21140 
202.23 	0.0089559 	21140 
202.73 	0.0089559 	20974 
203.23 	0.0088493 	21140 
203.73 	0.0089559 	21140 
204.23 	0.0089559 	21306 
204.73 	0.0089559 	21140 
205.23 	0.0089559 	21140 
205.73 	0.0089559 	21140 
206.23 	0.0089559 	21140 
206.73 	0.0089559 	21140 
207.23 	0.0089559 	21140 
207.73 	0.0089559 	21140 
208.23 	0.0089559 	20974 
208.73 	0.0089559 	21140 
209.23 	0.0089559 	21140 
209.73 	0.0089559 	21140 
210.23 	0.0089559 	21140 
210.73 	0.0089559 	21140 
211.23 	0.0089559 	21306 
211.73 	0.0089559 	21306 
212.23 	0.0089559 	21140 
212.73 	0.0089559 	20974 
213.23 	0.0089559 	21140 
213.73 	0.0089559 	20974 
214.23 	0.0089559 	21306 
214.73 	0.0089559 	21140 
215.23 	0.0089559 	21140 
215.73 	0.0089559 	21140 
216.23 	0.0088493 	21140 
216.73 	0.0089559 	21306 
217.23 	0.0089559 	21140 
217.73 	0.0089559 	21140 
218.23 	0.0088493 	21140 
218.73 	0.0089559 	20974 
219.23 	0.0089559 	21140 
219.73 	0.0089559 	21140 
220.23 	0.0089559 	21140 
220.73 	0.0089559 	21140 
221.23 	0.0089559 	21140 
221.73 	0.0089559 	21140 
222.23 	0.0089559 	21140 
222.73 	0.0089559 	21140 
223.23 	0.0088493 	21140 
223.73 	0.0089559 	21140 
224.23 	0.0089559 	21140 
224.73 	0.0089559 	21306 
225.23 	0.0089559 	21306 
225.73 	0.0089559 	20974 
226.23 	0.0089559 	20974 
226.73 	0.0088493 	21140 
227.23 	0.0089559 	21306 
227.73 	0.0089559 	21140 
228.23 	0.0089559 	21140 
228.73 	0.0089559 	20974 
229.23 	0.0089559 	20974 
229.73 	0.0089559 	21140 
230.23 	0.0089559 	21306 
230.73 	0.0088493 	21140 
231.23 	0.0089559 	20974 
231.73 	0.0089559 	21140 
232.23 	0.0089559 	21140 
232.73 	0.0089559 	21140 
233.23 	0.0088493 	21140 
233.73 	0.0089559 	21140 
234.23 	0.0089559 	20974 
234.73 	0.0088493 	21140 
235.23 	0.0089559 	21140 
235.73 	0.0089559 	21140 
236.23 	0.0089559 	21140 
236.73 	0.0089559 	21306 
237.23 	0.0089559 	21306 
237.73 	0.0089559 	21140 
238.23 	0.0089559 	20974 
238.73 	0.0088493 	21140 
239.23 	0.0089559 	21140 
239.73 	0.0089559 	21306 
240.23 	0.0089559 	21140 
240.73 	0.0089559 	21140 
241.23 	0.0089559 	20974 
241.73 	0.0088493 	21140 
242.23 	0.0089559 	21140 
242.73 	0.0088493 	20974 
243.23 	0.0087427 	20474 
243.73 	0.0085294 	20141 
244.15 	0.0083162 	19475 
244.65 	0.0081030 	19143 
245.15 	0.0079964 	18643 
245.65 	0.0077831 	18310 
246.15 	0.0076765 	17977 
246.65 	0.0074633 	17644 
247.10 	0.0073566 	16979 
247.48 	0.0070368 	16313 
247.98 	0.0068236 	15813 
248.43 	0.0066103 	15148 
248.93 	0.0062905 	14648 
249.43 	0.0060772 	14149 
249.93 	0.0058640 	13649 
250.40 	0.0056508 	12984 
250.90 	0.0053309 	12484 
251.40 	0.0052243 	11985 
251.90 	0.0049044 	11652 
252.33 	0.0047978 	10986 
252.83 	0.0044780 	10653 
253.25 	0.0043713 	9987.4 
253.75 	0.0041581 	9820.9 
254.17 	0.0038383 	9155.1 
254.67 	0.0037316 	8822.2 
255.13 	0.0035184 	8156.4 
255.63 	0.0034118 	7823.5 
256.10 	0.0031985 	7157.6 
256.60 	0.0029853 	6991.2 
257.08 	0.0028787 	6325.4 
257.58 	0.0027721 	5992.4 
258.08 	0.0025588 	5659.5 
258.58 	0.0023456 	5160.2 
259.08 	0.0021324 	4827.2 
259.58 	0.0020257 	4494.3 
260.08 	0.0018125 	4161.4 
260.58 	0.0017059 	3662.0 
261.08 	0.0015993 	3662.0 
261.58 	0.0014927 	3495.6 
262.08 	0.0013860 	3162.7 
262.58 	0.0013860 	3162.7 
263.08 	0.0013860 	3162.7 
263.58 	0.0013860 	2996.2 
264.08 	0.0013860 	2996.2 
264.58 	0.0013860 	2829.8 
265.08 	0.0013860 	2829.8 
265.58 	0.0013860 	2663.3 
266.08 	0.0013860 	2663.3 
266.58 	0.0013860 	2663.3 
267.08 	0.0010662 	2330.4 
267.58 	0.00095956 	2163.9 
268.08 	0.00085294 	1664.6 
268.58 	0.00085294 	1664.6 
269.08 	0.00074633 	1664.6 
269.58 	0.00063971 	1498.1 
270.08 	0.00063971 	1331.7 
270.58 	0.00063971 	1331.7 
271.08 	0.00053309 	1331.7 
271.58 	0.00063971 	1165.2 
272.08 	0.00053309 	1165.2 
272.58 	0.00053309 	998.74 
273.08 	0.00053309 	1331.7 
273.58 	0.00053309 	1165.2 
274.08 	0.00053309 	1165.2 
274.58 	0.00053309 	1165.2 
275.08 	0.00053309 	1165.2 
275.58 	0.00053309 	1165.2 
276.08 	0.00053309 	1331.7 
276.58 	0.00053309 	1165.2 
277.08 	0.00053309 	1165.2 
277.58 	0.00053309 	1165.2 
278.08 	0.00053309 	1165.2 
278.58 	0.00053309 	1165.2 
279.08 	0.00053309 	1165.2 
279.58 	0.00053309 	1165.2 
280.08 	0.00053309 	1165.2 
280.58 	0.00053309 	1165.2 
281.08 	0.00053309 	1165.2 
281.58 	0.00053309 	1165.2 
282.08 	0.00053309 	1165.2 
282.58 	0.00053309 	1165.2 
283.08 	0.00053309 	1165.2 
283.58 	0.00053309 	1165.2 
284.08 	0.00053309 	1165.2 
284.58 	0.00053309 	1165.2 
285.08 	0.00053309 	1165.2 
285.58 	0.00053309 	1165.2 
286.08 	0.00053309 	1165.2 
286.58 	0.00053309 	1165.2 
287.08 	0.00053309 	1331.7 
287.58 	0.00053309 	1165.2 
288.08 	0.00053309 	1165.2 
288.58 	0.00053309 	1165.2 
289.08 	0.00053309 	1165.2 
289.58 	0.00053309 	1165.2 
290.08 	0.00053309 	1165.2 
290.58 	0.00053309 	1165.2 
291.08 	0.00053309 	1165.2 
291.58 	0.00053309 	1331.7 
292.08 	0.00053309 	1165.2 
292.58 	0.00053309 	1165.2 
293.08 	0.00053309 	1165.2 
293.58 	0.00053309 	1165.2 
294.08 	0.00053309 	1165.2 
294.58 	0.00053309 	1165.2 
295.08 	0.00053309 	1165.2 
295.58 	0.00053309 	1165.2 
296.08 	0.00053309 	1165.2 
296.58 	0.00053309 	1165.2 
297.08 	0.00053309 	1165.2 
297.58 	0.00053309 	1165.2 
298.08 	0.00053309 	1165.2 
298.58 	0.00053309 	1165.2 
299.08 	0.00053309 	1165.2 
299.58 	0.00053309 	1165.2 
300.08 	0.00053309 	1165.2 
300.58 	0.00053309 	1165.2 
301.08 	0.00053309 	1331.7 
301.58 	0.00053309 	1165.2 
302.08 	0.00053309 	1165.2 
302.58 	0.00053309 	1165.2 
303.08 	0.00053309 	1165.2 
303.58 	0.00053309 	1331.7 
304.08 	0.00053309 	1331.7 
304.58 	0.00053309 	1165.2 
305.08 	0.00053309 	1165.2 
305.58 	0.00053309 	1165.2 
306.08 	0.00053309 	1331.7 
306.58 	0.00053309 	1331.7 
307.08 	0.00053309 	1165.2 
307.58 	0.00053309 	1165.2 
308.08 	0.00053309 	1165.2 
308.58 	0.00053309 	1165.2 
309.08 	0.00053309 	1165.2 
309.58 	0.00053309 	1165.2 
310.08 	0.00053309 	1165.2 
310.58 	0.00053309 	1331.7 
311.08 	0.00053309 	1331.7 
311.58 	0.00053309 	1165.2 
312.08 	0.00053309 	1165.2 
312.58 	0.00053309 	1165.2 
313.08 	0.00053309 	1165.2 
313.58 	0.00053309 	1165.2 
314.08 	0.00053309 	998.74 
314.58 	0.00053309 	1165.2 
315.08 	0.00053309 	1165.2 
315.58 	0.00053309 	1331.7 
316.08 	0.00053309 	1165.2 
316.58 	0.00053309 	998.74 
317.08 	0.00053309 	1165.2 
317.58 	0.00053309 	1165.2 
318.08 	0.00053309 	1165.2 
318.58 	0.00053309 	1331.7 
319.08 	0.00053309 	1165.2 
319.58 	0.00053309 	1165.2 
320.08 	0.00053309 	1165.2 
320.58 	0.00053309 	1165.2 
321.08 	0.00053309 	1165.2 
321.58 	0.00053309 	1165.2 
322.08 	0.00053309 	1165.2 
322.58 	0.00053309 	1165.2 
323.08 	0.00053309 	1165.2 
323.58 	0.00053309 	1165.2 
324.08 	0.00053309 	1165.2 
324.58 	0.00053309 	1165.2 
325.08 	0.00053309 	1165.2 
325.58 	0.00053309 	1664.6 
326.08 	0.00063971 	1997.5 
326.58 	0.00085294 	2330.4 
327.08 	0.00095956 	2663.3 
327.58 	0.0011728 	3162.7 
328.08 	0.0012794 	3662.0 
328.58 	0.0012794 	3662.0 
329.08 	0.0013860 	3828.5 
329.58 	0.0013860 	3995.0 
330.08 	0.0013860 	3995.0 
330.53 	0.0015993 	4660.8 
331.00 	0.0019191 	5326.6 
331.50 	0.0021324 	5659.5 
332.00 	0.0022390 	5992.4 
332.50 	0.0023456 	6325.4 
332.87 	0.0025588 	6991.2 
333.25 	0.0027721 	7657.0 
333.63 	0.0030919 	8322.8 
334.05 	0.0034118 	8988.7 
334.50 	0.0037316 	9654.5 
334.93 	0.0040515 	10320 
335.43 	0.0043713 	10986 
335.88 	0.0046912 	11652 
336.35 	0.0049044 	12318 
336.82 	0.0052243 	12984 
337.32 	0.0055441 	13649 
337.82 	0.0057574 	14149 
338.27 	0.0061839 	14482 
338.67 	0.0062905 	15148 
339.17 	0.0066103 	15480 
339.67 	0.0067169 	15813 
340.17 	0.0069302 	16313 
340.67 	0.0071434 	16812 
341.17 	0.0073566 	17312 
341.60 	0.0076765 	17977 
342.05 	0.0078897 	18643 
342.55 	0.0082096 	19143 
343.02 	0.0084228 	19808 
343.52 	0.0086361 	20308 
344.02 	0.0088493 	20641 
344.52 	0.0089559 	20974 
345.02 	0.0090625 	21140 
345.52 	0.0090625 	21140 
346.02 	0.0091692 	20974 
346.52 	0.0090625 	21140 
347.02 	0.0091692 	21140 
347.52 	0.0091692 	21140 
348.02 	0.0090625 	20974 
348.52 	0.0091692 	21140 
349.02 	0.0091692 	21140 
349.52 	0.0091692 	21140 
350.02 	0.0091692 	21140 
350.52 	0.0091692 	20974 
351.02 	0.0091692 	21140 
351.52 	0.0091692 	21140 
352.02 	0.0091692 	21140 
352.52 	0.0091692 	21140 
353.02 	0.0091692 	21140 
353.52 	0.0091692 	21140 
354.02 	0.0091692 	20974 
354.52 	0.0091692 	21140 
355.02 	0.0091692 	21140 
355.52 	0.0091692 	21140 
356.02 	0.0091692 	21140 
356.52 	0.0091692 	21140 
357.02 	0.0091692 	21140 
357.52 	0.0091692 	21140 
358.02 	0.0091692 	21140 
358.52 	0.0091692 	21140 
359.02 	0.0091692 	21140 
359.52 	0.0091692 	21140 
360.02 	0.0091692 	21140 
360.52 	0.0091692 	21140 
361.02 	0.0091692 	21140 
361.52 	0.0091692 	20974 
362.02 	0.0092758 	21306 
362.52 	0.0091692 	21140 
363.02 	0.0091692 	21140 
363.52 	0.0091692 	21140 
364.02 	0.0091692 	21140 
364.52 	0.0091692 	21140 
365.02 	0.0091692 	20974 
365.52 	0.0091692 	21140 
366.02 	0.0091692 	21306 
366.52 	0.0091692 	21306 
367.02 	0.0091692 	21140 
367.52 	0.0091692 	21306 
368.02 	0.0091692 	21140 
368.52 	0.0091692 	21140 
369.02 	0.0091692 	21140 
369.52 	0.0091692 	21140 
370.02 	0.0091692 	21140 
370.52 	0.0091692 	21140 
371.02 	0.0091692 	20974 
371.52 	0.0091692 	21140 
372.02 	0.0092758 	21306 
372.52 	0.0092758 	21140 
373.02 	0.0091692 	21140 
373.52 	0.0091692 	21140 
374.02 	0.0092758 	21140 
374.52 	0.0091692 	21140 
375.02 	0.0091692 	21140 
375.52 	0.0092758 	21140 
376.02 	0.0092758 	21140 
376.52 	0.0092758 	21140 
377.02 	0.0092758 	21140 
377.52 	0.0092758 	21306 
378.02 	0.0092758 	21140 
378.52 	0.0091692 	21140 
379.02 	0.0092758 	21140 
379.52 	0.0092758 	21140 
380.02 	0.0092758 	21140 
380.52 	0.0092758 	21140 
381.02 	0.0092758 	20974 
381.52 	0.0092758 	21140 
382.02 	0.0092758 	21306 
382.52 	0.0092758 	21140 
383.02 	0.0092758 	21140 
383.52 	0.0092758 	21140 
384.02 	0.0092758 	21140 
384.52 	0.0091692 	21140 
385.02 	0.0092758 	21140 
385.52 	0.0091692 	21140 
386.02 	0.0092758 	21140 
386.52 	0.0092758 	21140 
387.02 	0.0092758 	21306 
387.52 	0.0092758 	21140 
388.02 	0.0092758 	21140 
388.52 	0.0092758 	21140 
389.02 	0.0092758 	21140 
389.52 	0.0092758 	21140 
390.02 	0.0092758 	21140 
390.52 	0.0092758 	21140 
391.02 	0.0092758 	21140 
391.52 	0.0092758 	21140 
392.02 	0.0092758 	21140 
392.52 	0.0092758 	21140 
393.02 	0.0092758 	21140 
393.52 	0.0092758 	20974 
394.02 	0.0092758 	21140 
394.52 	0.0092758 	21140 
395.02 	0.0092758 	21140 
395.52 	0.0092758 	21140 
396.02 	0.0092758 	21140 
396.52 	0.0092758 	20974 
397.02 	0.0092758 	21140 
397.52 	0.0092758 	21140 
398.02 	0.0092758 	21140 
398.52 	0.0092758 	21140 
399.02 	0.0092758 	20974 
399.52 	0.0092758 	21140 
400.02 	0.0092758 	21140 
400.52 	0.0092758 	21140 
401.02 	0.0092758 	21140 
401.52 	0.0092758 	21140 
402.02 	0.0092758 	21140 
402.52 	0.0092758 	21140 
403.02 	0.0092758 	21140 
403.52 	0.0092758 	20974 
404.02 	0.0092758 	21140 
404.52 	0.0091692 	20807 
405.02 	0.0090625 	20308 
405.52 	0.0088493 	19808 
406.02 	0.0086361 	19309 
406.52 	0.0084228 	18976 
407.02 	0.0082096 	18643 
407.52 	0.0081030 	18144 
408.02 	0.0079964 	17644 
408.52 	0.0076765 	17312 
408.88 	0.0075699 	16646 
409.33 	0.0072500 	15980 
409.83 	0.0069302 	15480 
410.33 	0.0067169 	14981 
410.78 	0.0065037 	14315 
411.28 	0.0062905 	13816 
411.78 	0.0059706 	13317 
412.28 	0.0058640 	12817 
412.78 	0.0055441 	12318 
413.18 	0.0054375 	11652 
413.68 	0.0052243 	11486 
414.07 	0.0050111 	10820 
414.57 	0.0047978 	10320 
415.07 	0.0045846 	9820.9 
415.57 	0.0043713 	9488.0 
416.07 	0.0042647 	9155.1 
416.43 	0.0040515 	8489.3 
416.93 	0.0038383 	8156.4 
417.40 	0.0037316 	7490.6 
417.90 	0.0035184 	7324.1 
418.37 	0.0035184 	6658.3 
418.87 	0.0033052 	6491.8 
419.37 	0.0030919 	5992.4 
419.87 	0.0028787 	5493.1 
420.37 	0.0027721 	4993.7 
420.87 	0.0025588 	4660.8 
421.37 	0.0023456 	4327.9 
421.87 	0.0022390 	3995.0 
422.37 	0.0021324 	3828.5 
422.87 	0.0020257 	3495.6 
423.37 	0.0020257 	3329.1 
423.87 	0.0018125 	3162.7 
424.37 	0.0018125 	3162.7 
424.87 	0.0018125 	2996.2 
425.37 	0.0018125 	2996.2 
425.87 	0.0019191 	2829.8 
426.37 	0.0018125 	2829.8 
426.87 	0.0019191 	2829.8 
427.37 	0.0018125 	2663.3 
427.87 	0.0018125 	2496.9 
428.37 	0.0017059 	2330.4 
428.87 	0.0014927 	2163.9 
429.37 	0.0013860 	1831.0 
429.87 	0.0012794 	1664.6 
430.37 	0.0012794 	1498.1 
430.87 	0.0011728 	1331.7 
431.37 	0.0011728 	1331.7 
431.87 	0.0010662 	1331.7 
432.37 	0.0010662 	1331.7 
432.87 	0.0010662 	1331.7 
433.37 	0.0010662 	1165.2 
433.87 	0.0010662 	1331.7 
434.37 	0.0010662 	1331.7 
434.87 	0.0010662 	1165.2 
435.37 	0.0010662 	1165.2 
435.87 	0.00095956 	1165.2 
436.37 	0.0010662 	1165.2 
436.87 	0.00095956 	1331.7 
437.37 	0.0010662 	1165.2 
437.87 	0.0010662 	1165.2 
438.37 	0.00095956 	1165.2 
438.87 	0.0010662 	1165.2 
439.37 	0.00095956 	1165.2 
439.87 	0.0010662 	1165.2 
440.37 	0.00095956 	1165.2 
440.87 	0.0010662 	1165.2 
441.37 	0.00095956 	1165.2 
441.87 	0.0010662 	1331.7 
442.37 	0.0010662 	1165.2 
442.87 	0.0010662 	1165.2 
443.37 	0.0010662 	1165.2 
443.87 	0.00095956 	1331.7 
444.37 	0.00095956 	1165.2 
444.87 	0.0010662 	1165.2 
445.37 	0.0010662 	1165.2 
445.87 	0.00095956 	1165.2 
446.37 	0.0010662 	1165.2 
446.87 	0.00095956 	998.74 
447.37 	0.00095956 	1165.2 
447.87 	0.00095956 	1331.7 
448.37 	0.0010662 	1331.7 
448.87 	0.0010662 	1165.2 
449.37 	0.0010662 	1165.2 
449.87 	0.0010662 	998.74 
450.37 	0.00095956 	1165.2 
450.87 	0.00095956 	1165.2 
451.37 	0.00095956 	1331.7 
451.87 	0.00095956 	1165.2 
452.37 	0.00095956 	998.74 
452.87 	0.00095956 	1165.2 
453.37 	0.00095956 	1165.2 
453.87 	0.00095956 	1165.2 
454.37 	0.00095956 	1165.2 
454.87 	0.0010662 	1165.2 
455.37 	0.0010662 	1165.2 
455.87 	0.00095956 	1165.2 
456.37 	0.00095956 	1165.2 
456.87 	0.00095956 	1165.2 
457.37 	0.00095956 	1165.2 
457.87 	0.00095956 	1165.2 
458.37 	0.00095956 	1165.2 
458.87 	0.0010662 	1165.2 
459.37 	0.00095956 	1331.7 
459.87 	0.00095956 	1165.2 
460.37 	0.00095956 	1165.2 
460.87 	0.00095956 	1165.2 
461.37 	0.00095956 	1165.2 
461.87 	0.00095956 	1165.2 
462.37 	0.00095956 	1165.2 
462.87 	0.00095956 	998.74 
463.37 	0.00095956 	1165.2 
463.87 	0.00095956 	1165.2 
464.37 	0.00095956 	1165.2 
464.87 	0.00095956 	1165.2 
465.37 	0.00095956 	1165.2 
465.87 	0.00095956 	1165.2 
466.37 	0.00095956 	1165.2 
466.87 	0.00095956 	1165.2 
467.37 	0.0010662 	1331.7 
467.87 	0.00095956 	1165.2 
468.37 	0.00095956 	1165.2 
468.87 	0.00085294 	998.74 
469.37 	0.00095956 	1165.2 
469.87 	0.00095956 	1331.7 
470.37 	0.00095956 	1165.2 
470.87 	0.0010662 	998.74 
471.37 	0.0010662 	1165.2 
471.87 	0.00095956 	1165.2 
472.37 	0.00095956 	1165.2 
472.87 	0.00095956 	1165.2 
473.37 	0.0010662 	1165.2 
473.87 	0.0010662 	1331.7 
474.37 	0.0010662 	1165.2 
474.87 	0.00095956 	1165.2 
475.37 	0.00095956 	1165.2 
475.87 	0.00095956 	1165.2 
476.37 	0.00095956 	1165.2 
476.87 	0.00095956 	1331.7 
477.37 	0.00095956 	998.74 
477.87 	0.00095956 	1165.2 
478.37 	0.00095956 	1165.2 
478.87 	0.00095956 	1165.2 
479.37 	0.00095956 	1165.2 
479.87 	0.00095956 	1165.2 
480.37 	0.00095956 	1165.2 
480.87 	0.00095956 	1331.7 
481.37 	0.00095956 	1165.2 
481.87 	0.00095956 	1165.2 
482.37 	0.00095956 	1165.2 
482.87 	0.00095956 	1331.7 
483.37 	0.00095956 	1331.7 
483.87 	0.00095956 	998.74 
484.37 	0.00095956 	1165.2 
484.87 	0.00095956 	1331.7 
485.37 	0.00095956 	1331.7 
485.87 	0.00095956 	1165.2 
486.02 	0.00095956 	1165.2 
486.52 	0.00095956 	1165.2 
487.02 	0.00095956 	1165.2 
487.52 	0.00095956 	1165.2 
488.02 	0.00095956 	1165.2 
488.52 	0.00095956 	1165.2 
489.02 	0.00095956 	1165.2 
489.52 	0.00095956 	1165.2 
490.02 	0.00095956 	1331.7 
490.52 	0.00095956 	1165.2 
491.02 	0.00095956 	1165.2 
491.52 	0.00095956 	1165.2 
492.02 	0.00095956 	1165.2 
492.52 	0.00095956 	1331.7 
493.02 	0.00095956 	1165.2 
493.52 	0.00095956 	998.74 
494.02 	0.00095956 	1331.7 
494.52 	0.00095956 	1165.2 
495.02 	0.00095956 	1165.2 
495.52 	0.00095956 	1165.2 
496.02 	0.00095956 	1165.2 
496.52 	0.00095956 	1331.7 
497.02 	0.00095956 	1331.7 
497.52 	0.00095956 	998.74 
498.02 	0.00095956 	1165.2 
498.52 	0.00095956 	998.74 
499.02 	0.00095956 	1165.2 
499.52 	0.00095956 	1165.2 
500.02 	0.00095956 	1165.2 
500.52 	0.00095956 	1331.7 
501.02 	0.00095956 	1165.2 
501.52 	0.00095956 	1165.2 
502.02 	0.00095956 	1165.2 
502.52 	0.00095956 	1165.2 
503.02 	0.00095956 	1165.2 
503.52 	0.00095956 	1165.2 
504.02 	0.00095956 	1165.2 
504.52 	0.00095956 	1331.7 
505.02 	0.00095956 	1165.2 
505.52 	0.00095956 	1165.2 
506.02 	0.00095956 	1165.2 
506.52 	0.00095956 	1165.2 
507.02 	0.00095956 	1331.7 
507.52 	0.00095956 	1165.2 
508.02 	0.0010662 	1165.2 
508.52 	0.00095956 	1165.2 
509.02 	0.00095956 	1165.2 
509.52 	0.00095956 	1165.2 
510.02 	0.00095956 	1331.7 
510.52 	0.00095956 	1165.2 
511.02 	0.00095956 	1165.2 
511.52 	0.00095956 	998.74 
512.02 	0.00095956 	1165.2 
512.52 	0.00095956 	1331.7 
513.02 	0.00095956 	1165.2 
513.52 	0.00095956 	1165.2 
514.02 	0.00095956 	998.74 
514.52 	0.00095956 	1165.2 
515.02 	0.00095956 	1165.2 
515.52 	0.00095956 	1165.2 
516.00 	0.00095956 	998.74 
516.50 	0.00095956 	1165.2 
517.00 	0.00095956 	1165.2 
517.50 	0.00095956 	1331.7 
518.00 	0.00095956 	1664.6 
518.50 	0.0011728 	1997.5 
519.00 	0.0012794 	2330.4 
519.50 	0.0014927 	2663.3 
520.00 	0.0015993 	3162.7 
520.50 	0.0018125 	3495.6 
521.00 	0.0018125 	3662.0 
521.50 	0.0018125 	3662.0 
522.00 	0.0018125 	3995.0 
522.50 	0.0019191 	4161.4 
523.00 	0.0020257 	4494.3 
523.25 	0.0022390 	5160.2 
523.75 	0.0025588 	5493.1 
524.22 	0.0025588 	6158.9 
524.72 	0.0027721 	6158.9 
525.18 	0.0028787 	6824.7 
525.67 	0.0031985 	7490.6 
526.03 	0.0036250 	8156.4 
526.38 	0.0037316 	8822.2 
526.85 	0.0041581 	9155.1 
527.17 	0.0042647 	9820.9 
527.55 	0.0045846 	10487 
527.90 	0.0047978 	11153 
528.40 	0.0051177 	11652 
528.85 	0.0054375 	12318 
529.28 	0.0056508 	12984 
529.78 	0.0059706 	13483 
530.28 	0.0062905 	14149 
530.78 	0.0065037 	14648 
531.28 	0.0067169 	15314 
531.78 	0.0070368 	15647 
532.28 	0.0071434 	15980 
532.78 	0.0073566 	16479 
533.28 	0.0075699 	16812 
533.67 	0.0077831 	17478 
534.13 	0.0081030 	18144 
534.53 	0.0083162 	18810 
535.03 	0.0085294 	19309 
535.53 	0.0088493 	19808 
536.02 	0.0090625 	20474 
536.52 	0.0092758 	20641 
537.02 	0.0093824 	20974 
537.52 	0.0093824 	20974 
538.02 	0.0094890 	21140 
538.52 	0.0094890 	21140 
539.02 	0.0094890 	21140 
539.52 	0.0094890 	21140 
540.02 	0.0094890 	21140 
540.52 	0.0094890 	21140 
541.02 	0.0094890 	21140 
541.52 	0.0094890 	21140 
542.02 	0.0094890 	21140 
542.52 	0.0094890 	20974 
543.02 	0.0094890 	21140 
543.52 	0.0094890 	21140 
544.02 	0.0094890 	21140 
544.52 	0.0094890 	21140 
545.02 	0.0094890 	21140 
545.52 	0.0094890 	21140 
546.02 	0.0094890 	21140 
546.52 	0.0094890 	21140 
547.02 	0.0094890 	21140 
547.52 	0.0094890 	20974 
548.02 	0.0094890 	21140 
548.52 	0.0094890 	21140 
549.02 	0.0094890 	21140 
549.52 	0.0094890 	21306 
550.02 	0.0094890 	21140 
550.52 	0.0094890 	21140 
551.02 	0.0094890 	21140 
551.52 	0.0094890 	21306 
552.02 	0.0094890 	21140 
552.52 	0.0093824 	21140 
553.02 	0.0094890 	21140 
553.52 	0.0094890 	20974 
554.02 	0.0094890 	21306 
554.52 	0.0094890 	21306 
555.02 	0.0094890 	21140 
555.52 	0.0094890 	21140 
556.02 	0.0094890 	21140 
556.52 	0.0095956 	21140 
557.02 	0.0094890 	21140 
557.52 	0.0094890 	21140 
558.02 	0.0094890 	21306 
558.52 	0.0094890 	21306 
559.02 	0.0094890 	21140 
559.52 	0.0095956 	21140 
560.02 	0.0094890 	21140 
560.52 	0.0094890 	21140 
561.02 	0.0094890 	21140 
561.52 	0.0094890 	21140 
562.02 	0.0094890 	21140 
562.52 	0.0094890 	21306 
563.02 	0.0094890 	21140 
563.52 	0.0094890 	21140 
564.02 	0.0094890 	21140 
564.52 	0.0094890 	21140 
565.02 	0.0094890 	21306 
565.52 	0.0094890 	21140 
566.02 	0.0094890 	21140 
566.52 	0.0094890 	21140 
567.02 	0.0094890 	21140 
567.52 	0.0094890 	21140 
568.02 	0.0094890 	21140 
568.52 	0.0094890 	21306 
569.02 	0.0095956 	21306 
569.52 	0.0094890 	20974 
570.02 	0.0094890 	21140 
570.52 	0.0094890 	21140 
571.02 	0.0094890 	21140 
571.52 	0.0094890 	21306 
572.02 	0.0094890 	21140 
572.52 	0.0094890 	21140 
573.02 	0.0094890 	20974 
573.52 	0.0094890 	21140 
574.02 	0.0094890 	21140 
574.52 	0.0095956 	21140 
575.02 	0.0094890 	21140 
575.52 	0.0094890 	21140 
576.02 	0.0094890 	21140 
576.52 	0.0094890 	21140 
577.02 	0.0094890 	21306 
577.52 	0.0094890 	21140 
578.02 	0.0094890 	20974 
578.52 	0.0094890 	21140 
579.02 	0.0094890 	21306 
579.52 	0.0094890 	21306 
580.02 	0.0094890 	21140 
580.52 	0.0094890 	20974 
581.02 	0.0094890 	21140 
581.52 	0.0094890 	21140 
582.02 	0.0094890 	21306 
582.52 	0.0094890 	21140 
583.02 	0.0094890 	21140 
583.52 	0.0094890 	21140 
584.02 	0.0094890 	21140 
584.52 	0.0094890 	21140 
585.02 	0.0095956 	21306 
585.52 	0.0094890 	21140 
586.02 	0.0094890 	21140 
586.52 	0.0094890 	21140 
587.02 	0.0094890 	21140 
587.52 	0.0094890 	21306 
588.02 	0.0095956 	21306 
588.52 	0.0095956 	21140 
589.02 	0.0094890 	20974 
589.52 	0.0094890 	20974 
590.02 	0.0094890 	21140 
590.52 	0.0094890 	21140 
591.02 	0.0094890 	21306 
591.52 	0.0094890 	21140 
592.02 	0.0094890 	21140 
592.52 	0.0094890 	21140 
593.02 	0.0094890 	21140 
593.52 	0.0095956 	21306 
594.02 	0.0095956 	21306 
594.52 	0.0094890 	21140 
595.02 	0.0094890 	20974 
595.52 	0.0094890 	21140 
596.02 	0.0094890 	21306 
596.37 	0.0094890 	21140 
596.87 	0.0095956 	21140 
597.37 	0.0094890 	21140 
597.87 	0.0094890 	21140 
598.37 	0.0094890 	21140 
598.87 	0.0094890 	21306 
599.37 	0.0094890 	21306 
599.87 	0.0094890 	21140 
600.37 	0.0094890 	21140 
600.87 	0.0094890 	20974 
601.37 	0.0094890 	21140 
601.87 	0.0094890 	21306 
602.37 	0.0094890 	21306 
602.87 	0.0094890 	21140 
603.37 	0.0094890 	21140 
603.87 	0.0094890 	21140 
604.37 	0.0094890 	21306 
604.87 	0.0094890 	21140 
605.37 	0.0094890 	21140 
605.87 	0.0094890 	20974 
606.37 	0.0094890 	21140 
606.87 	0.0094890 	21140 
607.37 	0.0094890 	21140 
607.87 	0.0095956 	21140 
608.37 	0.0094890 	21140 
608.87 	0.0094890 	21140 
609.37 	0.0094890 	21140 
609.87 	0.0094890 	21140 
610.37 	0.0094890 	21140 
610.87 	0.0094890 	21140 
611.37 	0.0094890 	20974 
611.87 	0.0094890 	21140 
612.37 	0.0095956 	21140 
612.87 	0.0094890 	21140 
613.37 	0.0094890 	21140 
613.87 	0.0094890 	21140 
614.37 	0.0094890 	21140 
614.87 	0.0095956 	21306 
615.37 	0.0094890 	21140 
615.87 	0.0094890 	21140 
616.37 	0.0094890 	21140 
616.87 	0.0094890 	21140 
617.37 	0.0094890 	21140 
617.87 	0.0094890 	21140 
618.37 	0.0094890 	21140 
618.87 	0.0094890 	21140 
619.37 	0.0094890 	21140 
619.87 	0.0094890 	21140 
620.37 	0.0094890 	21140 
620.87 	0.0094890 	21140 
621.37 	0.0094890 	21140 
621.87 	0.0094890 	21140 
622.37 	0.0094890 	21140 
622.87 	0.0094890 	21140 
623.37 	0.0094890 	21140 
623.87 	0.0094890 	21140 
624.37 	0.0094890 	21140 
624.87 	0.0094890 	21140 
625.37 	0.0094890 	21140 
625.87 	0.0094890 	20974 
626.37 	0.0094890 	20974 
626.87 	0.0094890 	21140 
627.37 	0.0094890 	21306 
627.87 	0.0094890 	21140 
628.37 	0.0094890 	21140 
628.87 	0.0094890 	21140 
629.37 	0.0094890 	21140 
629.87 	0.0094890 	21140 
630.37 	0.0094890 	21140 
630.87 	0.0094890 	21140 
631.37 	0.0094890 	21140 
631.87 	0.0094890 	20974 
632.37 	0.0094890 	21140 
632.87 	0.0094890 	21306 
633.37 	0.0094890 	21140 
633.87 	0.0094890 	21140 
634.37 	0.0094890 	20974 
634.87 	0.0094890 	21306 
635.37 	0.0094890 	21140 
635.87 	0.0094890 	21140 
636.37 	0.0094890 	21140 
636.87 	0.0094890 	21140 
637.37 	0.0094890 	20974 
637.87 	0.0094890 	21140 
638.37 	0.0094890 	21140 
638.87 	0.0094890 	21140 
639.37 	0.0094890 	21140 
639.87 	0.0094890 	20974 
640.37 	0.0094890 	21306 
640.87 	0.0094890 	21140 
641.37 	0.0094890 	21140 
641.87 	0.0094890 	21306 
642.37 	0.0094890 	20974 
642.87 	0.0094890 	21140 
643.37 	0.0094890 	21140 
643.87 	0.0094890 	21306 
644.37 	0.0094890 	21140 
644.87 	0.0094890 	21140 
645.37 	0.0094890 	21140 
645.87 	0.0094890 	21140 
646.37 	0.0094890 	21140 
646.87 	0.0094890 	21306 
647.37 	0.0094890 	20974 
647.87 	0.0094890 	21140 
648.37 	0.0094890 	21140 
648.87 	0.0094890 	21140 
649.37 	0.0094890 	21306 
649.87 	0.0094890 	21140 
650.37 	0.0094890 	21140 
650.87 	0.0094890 	21140 
651.37 	0.0094890 	21140 
651.87 	0.0094890 	21306 
652.37 	0.0094890 	21140 
652.87 	0.0094890 	21140 
653.37 	0.0094890 	21140 
653.87 	0.0094890 	21140 
654.37 	0.0094890 	21140 
654.87 	0.0094890 	21140 
655.37 	0.0094890 	21140 
655.87 	0.0094890 	20974 
656.37 	0.0094890 	21140 
656.87 	0.0094890 	21306 
657.37 	0.0094890 	21140 
657.87 	0.0094890 	20974 
658.37 	0.0094890 	20974 
658.87 	0.0094890 	21140 
659.37 	0.0094890 	21306 
659.87 	0.0094890 	21140 
660.37 	0.0094890 	21140 
660.87 	0.0094890 	21140 
661.37 	0.0094890 	21140 
661.87 	0.0094890 	21306 
662.37 	0.0094890 	21140 
662.87 	0.0094890 	20974 
663.37 	0.0094890 	21140 
663.87 	0.0094890 	21140 
664.37 	0.0094890 	21140 
664.87 	0.0094890 	21140 
665.37 	0.0094890 	21140 
665.87 	0.0094890 	21140 
666.37 	0.0094890 	21140 
666.87 	0.0094890 	21140 
667.37 	0.0094890 	21306 
667.87 	0.0094890 	21140 
668.37 	0.0094890 	21140 
668.87 	0.0094890 	21140 
669.37 	0.0094890 	21306 
669.87 	0.0094890 	21140 
670.37 	0.0094890 	21140 
670.87 	0.0094890 	21140 
671.37 	0.0094890 	21140 
671.87 	0.0094890 	21140 
672.37 	0.0094890 	21140 
672.87 	0.0094890 	20974 
673.37 	0.0094890 	21140 
673.87 	0.0094890 	21140 
674.37 	0.0094890 	21140 
674.87 	0.0094890 	21140 
675.37 	0.0094890 	21140 
675.87 	0.0094890 	21140 
676.37 	0.0094890 	20974 
676.87 	0.0094890 	21140 
677.37 	0.0094890 	21140 
677.87 	0.0094890 	21140 
678.37 	0.0094890 	20974 
678.87 	0.0094890 	21140 
679.37 	0.0094890 	21140 
679.87 	0.0094890 	21140 
680.37 	0.0094890 	21306 
680.87 	0.0094890 	21140 
681.37 	0.0094890 	21140 
681.87 	0.0094890 	21140 
682.37 	0.0094890 	21140 
682.87 	0.0094890 	21140 
683.37 	0.0094890 	21140 
683.87 	0.0094890 	21140 
684.37 	0.0094890 	21140 
684.87 	0.0094890 	21140 
685.37 	0.0094890 	21140 
685.87 	0.0094890 	21140 
686.37 	0.0094890 	21140 
686.87 	0.0094890 	21473 
687.33 	0.0094890 	22139 
687.83 	0.0094890 	22472 
688.33 	0.0094890 	22971 
688.83 	0.0094890 	23470 
689.33 	0.0094890 	23970 
689.82 	0.0094890 	24636 
690.32 	0.0094890 	25135 
690.82 	0.0094890 	25468 
691.32 	0.0094890 	25967 
691.82 	0.0094890 	26467 
692.28 	0.0094890 	27132 
692.78 	0.0094890 	27465 
693.23 	0.0094890 	28131 
693.73 	0.0094890 	28464 
694.18 	0.0094890 	29130 
694.68 	0.0094890 	29463 
695.18 	0.0094890 	29962 
695.62 	0.0094890 	30628 
696.12 	0.0094890 	30961 
696.62 	0.0094890 	31460 
697.12 	0.0094890 	31960 
697.62 	0.0094890 	32626 
698.12 	0.0094890 	32958 
698.53 	0.0094890 	33624 
699.03 	0.0094890 	33957 
699.53 	0.0094890 	34457 
700.03 	0.0094890 	34956 
700.53 	0.0094890 	35455 
701.03 	0.0094890 	35955 
701.53 	0.0094890 	36454 
701.88 	0.0094890 	37120 
702.38 	0.0094890 	37786 
702.88 	0.0094890 	38285 
703.33 	0.0094890 	38951 
703.83 	0.0094890 	39284 
704.28 	0.0094890 	39950 
704.78 	0.0094890 	40283 
705.25 	0.0094890 	40948 
705.75 	0.0094890 	41448 
706.25 	0.0094890 	41947 
706.75 	0.0094890 	42446 
707.23 	0.0094890 	43112 
707.73 	0.0094890 	43612 
708.23 	0.0094890 	44111 
708.73 	0.0094890 	44610 
709.23 	0.0094890 	45110 
709.73 	0.0094890 	45776 
710.23 	0.0094890 	46275 
710.73 	0.0094890 	46608 
711.15 	0.0094890 	47274 
711.65 	0.0094890 	47773 
712.15 	0.0094890 	48272 
712.65 	0.0094890 	48772 
713.15 	0.0094890 	49438 
713.65 	0.0094890 	49937 
714.15 	0.0094890 	50436 
714.65 	0.0094890 	50936 
715.15 	0.0094890 	51435 
715.65 	0.0094890 	51935 
716.08 	0.0094890 	52600 
716.58 	0.0094890 	52933 
717.08 	0.0094890 	53433 
717.58 	0.0094890 	53932 
718.07 	0.0094890 	54598 
718.57 	0.0094890 	55097 
719.07 	0.0094890 	55597 
719.57 	0.0094890 	56096 
720.07 	0.0094890 	56595 
720.57 	0.0094890 	57095 
721.05 	0.0094890 	57761 
721.55 	0.0094890 	58260 
722.05 	0.0094890 	58759 
722.55 	0.0094890 	59259 
723.05 	0.0094890 	59758 
723.55 	0.0094890 	60257 
723.97 	0.0094890 	60923 
724.47 	0.0094890 	61256 
724.97 	0.0094890 	61922 
725.47 	0.0094890 	62255 
725.90 	0.0094890 	62921 
726.40 	0.0094890 	63420 
726.90 	0.0094890 	63919 
727.40 	0.0094890 	64419 
727.90 	0.0094890 	64918 
728.37 	0.0094890 	65584 
728.87 	0.0094890 	66083 
729.37 	0.0094890 	66583 
729.87 	0.0094890 	67082 
730.37 	0.0094890 	67581 
730.87 	0.0094890 	68081 
731.37 	0.0094890 	68580 
731.85 	0.0094890 	69246 
732.35 	0.0094890 	69745 
732.85 	0.0094890 	70078 
733.27 	0.0094890 	70744 
733.77 	0.0094890 	71077 
734.18 	0.0094890 	71743 
734.68 	0.0094890 	72076 
735.15 	0.0094890 	72742 
735.65 	0.0094890 	73075 
736.12 	0.0094890 	73740 
736.62 	0.0094890 	74240 
737.12 	0.0094890 	74739 
737.62 	0.0094890 	75238 
738.12 	0.0094890 	75738 
738.60 	0.0094890 	76404 
739.10 	0.0094890 	76737 
739.50 	0.0094890 	77402 
740.00 	0.0094890 	77735 
740.50 	0.0094890 	78235 
741.00 	0.0094890 	78734 
741.45 	0.0094890 	79400 
741.95 	0.0094890 	79899 
742.45 	0.0094890 	80399 
742.95 	0.0094890 	80898 
743.45 	0.0094890 	81397 
743.95 	0.0094890 	82063 
744.45 	0.0094890 	82563 
744.95 	0.0094890 	83062 
745.45 	0.0094890 	83561 
745.95 	0.0094890 	84061 
746.45 	0.0094890 	84560 
746.93 	0.0094890 	85226 
747.43 	0.0094890 	85559 
747.87 	0.0094890 	86225 
748.37 	0.0094890 	86724 
748.87 	0.0094890 	87223 
749.37 	0.0094890 	87556 
749.80 	0.0094890 	88222 
750.30 	0.0094890 	88721 
750.80 	0.0094890 	89221 
751.30 	0.0094890 	89720 
751.78 	0.0094890 	90386 
752.28 	0.0094890 	90885 
752.78 	0.0094890 	91385 
753.28 	0.0094890 	91884 
753.78 	0.0094890 	92384 
754.28 	0.0094890 	92883 
754.78 	0.0094890 	93382 
755.28 	0.0094890 	93882 
755.73 	0.0094890 	94547 
756.23 	0.0094890 	94880 
756.70 	0.0094890 	95546 
757.20 	0.0094890 	96046 
757.70 	0.0094890 	96545 
758.20 	0.0094890 	97044 
758.70 	0.0094890 	97710 
759.20 	0.0094890 	98209 
759.70 	0.0094890 	98542 
760.15 	0.0094890 	99208 
760.65 	0.0094890 	99708 
761.15 	0.0094890 	100210 
761.65 	0.0094890 	100710 
762.15 	0.0094890 	101210 
762.65 	0.0094890 	101710 
763.15 	0.0094890 	102370 
763.65 	0.0094890 	102870 
764.15 	0.0094890 	103370 
764.65 	0.0094890 	103870 
765.15 	0.0094890 	104370 
765.62 	0.0094890 	105030 
766.12 	0.0094890 	105370 
766.55 	0.0094890 	106030 
767.05 	0.0094890 	106370 
767.53 	0.0094890 	107030 
768.03 	0.0094890 	107530 
768.53 	0.0094890 	107860 
768.92 	0.0094890 	108530 
769.42 	0.0094890 	109030 
769.92 	0.0094890 	109360 
770.38 	0.0094890 	110030 
770.88 	0.0094890 	110530 
771.38 	0.0094890 	111030 
771.88 	0.0094890 	111530 
772.38 	0.0094890 	112190 
772.88 	0.0094890 	112520 
773.38 	0.0094890 	113190 
773.88 	0.0094890 	113690 
774.38 	0.0094890 	114190 
774.88 	0.0094890 	114690 
775.38 	0.0094890 	115190 
775.80 	0.0094890 	115850 
776.30 	0.0094890 	116190 
776.80 	0.0094890 	116690 
777.28 	0.0094890 	117350 
777.78 	0.0094890 	117850 
778.28 	0.0094890 	118350 
778.78 	0.0094890 	118850 
779.28 	0.0094890 	119350 
779.78 	0.0094890 	119850 
780.25 	0.0094890 	120510 
780.75 	0.0094890 	120850 
781.22 	0.0094890 	121510 
781.72 	0.0094890 	122010 
782.22 	0.0094890 	122510 
782.72 	0.0094890 	123010 
783.22 	0.0094890 	123510 
783.72 	0.0094890 	124180 
784.22 	0.0094890 	124510 
784.68 	0.0094890 	125180 
785.18 	0.0094890 	125670 
785.68 	0.0094890 	126170 
786.18 	0.0094890 	126670 
786.68 	0.0094890 	127170 
787.18 	0.0094890 	127670 
787.67 	0.0094890 	128340 
788.17 	0.0094890 	128670 
788.67 	0.0094890 	129340 
789.17 	0.0094890 	129840 
789.67 	0.0094890 	130340 
790.17 	0.0094890 	130840 
790.67 	0.0094890 	131500 
791.17 	0.0094890 	132000 
791.67 	0.0094890 	132500 
792.17 	0.0094890 	133000 
792.67 	0.0094890 	133500 
793.17 	0.0094890 	134000 
793.67 	0.0094890 	134660 
794.17 	0.0094890 	135000 
794.67 	0.0094890 	135660 
795.17 	0.0094890 	136160 
795.67 	0.0094890 	136830 
796.17 	0.0094890 	137330 
796.67 	0.0094890 	137830 
797.17 	0.0094890 	138330 
797.67 	0.0094890 	138820 
798.17 	0.0094890 	139320 
798.67 	0.0094890 	139820 
799.17 	0.0094890 	140320 
799.67 	0.0094890 	140990 
800.17 	0.0094890 	141490 
800.67 	0.0094890 	141990 
801.17 	0.0094890 	142650 
801.67 	0.0094890 	142990 
802.17 	0.0094890 	143650 
802.67 	0.0094890 	144150 
803.17 	0.0094890 	144650 
803.67 	0.0094890 	145150 
804.17 	0.0094890 	145820 
804.67 	0.0094890 	146320 
805.17 	0.0094890 	146650 
805.67 	0.0094890 	147310 
806.17 	0.0094890 	147810 
806.67 	0.0094890 	148310 
807.17 	0.0094890 	148980 
807.67 	0.0094890 	149310 
808.17 	0.0094890 	149980 
808.67 	0.0094890 	150480 
809.17 	0.0094890 	150980 
809.67 	0.0094890 	151480 
810.17 	0.0094890 	151980 
810.67 	0.0094890 	152640 
811.17 	0.0094890 	153140 
811.67 	0.0094890 	153640 
812.17 	0.0094890 	154140 
812.67 	0.0094890 	154640 
813.17 	0.0094890 	155140 
813.67 	0.0094890 	155800 
814.17 	0.0094890 	156300 
814.67 	0.0094890 	156800 
815.17 	0.0094890 	157300 
815.67 	0.0094890 	157970 
816.17 	0.0094890 	158470 
816.67 	0.0094890 	158970 
817.17 	0.0094890 	159470 
817.67 	0.0094890 	159960 
818.17 	0.0094890 	160460 
818.67 	0.0094890 	160960 
819.17 	0.0094890 	161460 
819.67 	0.0094890 	162130 
820.17 	0.0094890 	162630 
820.67 	0.0094890 	163130 
821.17 	0.0094890 	163630 
821.67 	0.0094890 	164290 
822.17 	0.0094890 	164790 
822.67 	0.0094890 	165290 
823.17 	0.0094890 	165790 
823.67 	0.0094890 	166120 
823.70 	0.0094890 	164960 
823.97 	0.0094890 	163960 
823.98 	0.0094890 	162460 
824.02 	0.0094890 	161300 
824.18 	0.0094890 	162300 
824.28 	0.0094890 	163290 
824.40 	0.0094890 	164290 
824.53 	0.0094890 	165290 
824.77 	0.0094890 	166290 
825.12 	0.0094890 	167290 
825.62 	0.0094890 	167790 
826.12 	0.0094890 	168450 
826.62 	0.0094890 	169120 
827.12 	0.0094890 	169790 
827.62 	0.0094890 	170290 
828.12 	0.0094890 	170780 
828.62 	0.0094890 	171450 
829.12 	0.0094890 	171950 
829.62 	0.0094890 	172280 
830.12 	0.0094890 	172780 
830.62 	0.0094890 	173450 
831.12 	0.0094890 	173950 
831.62 	0.0094890 	174610 
832.12 	0.0094890 	174950 
832.62 	0.0094890 	175610 
833.12 	0.0094890 	176110 
833.62 	0.0094890 	176610 
834.12 	0.0094890 	177110 
834.62 	0.0094890 	177780 
835.12 	0.0094890 	178280 
835.62 	0.0094890 	178770 
836.12 	0.0094890 	179440 
836.62 	0.0094890 	179770 
837.12 	0.0094890 	180440 
837.62 	0.0094890 	180940 
838.12 	0.0094890 	181440 
838.62 	0.0094890 	181940 
839.12 	0.0094890 	182440 
839.62 	0.0094890 	182940 
840.12 	0.0094890 	183600 
840.62 	0.0094890 	184100 
841.12 	0.0094890 	184430 
841.62 	0.0094890 	185100 
842.12 	0.0094890 	185430 
842.62 	0.0094890 	185930 
843.12 	0.0094890 	186760 
843.62 	0.0094890 	187100 
844.12 	0.0094890 	187600 
844.62 	0.0094890 	188260 
845.12 	0.0094890 	188600 
845.62 	0.0094890 	188600 
846.12 	0.0094890 	189260 
846.52 	0.0094890 	187600 
847.02 	0.0094890 	187430 
847.30 	0.0094890 	184430 
847.50 	0.0094890 	185770 
847.58 	0.0094890 	182270 
847.60 	0.0094890 	176940 
847.62 	0.0094890 	174950 
847.63 	0.0094890 	176440 
847.65 	0.0094890 	177780 
847.85 	0.0094890 	176440 
847.88 	0.0094890 	173450 
847.90 	0.0094890 	170290 
847.92 	0.0094890 	147310 
847.93 	0.0094890 	70578 
