Tempo(s)	Deformação(mm)	Força(N)
0.016667 	-0.0001068 	166.46 
0.51667 	-0.0001068 	166.46 
1.0167 	0.00000 	499.37 
1.5167 	0.00000 	499.37 
2.0167 	0.00010662 	832.28 
2.5167 	0.00010662 	1331.7 
3.0167 	0.00031985 	1498.1 
3.3833 	0.00031985 	2163.9 
3.8833 	0.00042647 	2496.9 
4.3667 	0.00063971 	3162.7 
4.8667 	0.00074633 	3495.6 
5.1000 	0.00095956 	4161.4 
5.6000 	0.0010662 	4827.2 
6.0333 	0.0012794 	5493.1 
6.5333 	0.0014927 	5826.0 
6.9167 	0.0015993 	6491.8 
7.4167 	0.0017059 	6991.2 
7.9167 	0.0018125 	7490.6 
8.3333 	0.0019191 	8156.4 
8.8333 	0.0020257 	8489.3 
9.3167 	0.0021324 	9155.1 
9.8167 	0.0023456 	9654.5 
10.317 	0.0024522 	10154 
10.817 	0.0025588 	10653 
11.317 	0.0026655 	11153 
11.817 	0.0027721 	11486 
12.317 	0.0028787 	11818 
12.817 	0.0029853 	12484 
13.317 	0.0030919 	12984 
13.817 	0.0031985 	13483 
14.183 	0.0033052 	14149 
14.683 	0.0035184 	14648 
15.133 	0.0037316 	15314 
15.633 	0.0038383 	15813 
16.133 	0.0040515 	16313 
16.633 	0.0041581 	16812 
17.133 	0.0042647 	17312 
17.567 	0.0043713 	17977 
18.067 	0.0044780 	18310 
18.517 	0.0046912 	18976 
19.017 	0.0047978 	19309 
19.517 	0.0049044 	19808 
20.017 	0.0051177 	20308 
20.517 	0.0051177 	20641 
21.017 	0.0052243 	20807 
21.517 	0.0052243 	20807 
22.017 	0.0052243 	20974 
22.517 	0.0052243 	20974 
23.017 	0.0052243 	20974 
23.517 	0.0052243 	20807 
24.017 	0.0052243 	20974 
24.517 	0.0052243 	20974 
25.017 	0.0052243 	20974 
25.517 	0.0052243 	20974 
26.017 	0.0052243 	20807 
26.517 	0.0052243 	20974 
27.017 	0.0052243 	20974 
27.517 	0.0052243 	20974 
28.017 	0.0052243 	20974 
28.517 	0.0052243 	20974 
29.017 	0.0052243 	21140 
29.517 	0.0051177 	21140 
30.017 	0.0051177 	20974 
30.517 	0.0051177 	20974 
31.017 	0.0051177 	20807 
31.517 	0.0051177 	20974 
32.017 	0.0051177 	20974 
32.517 	0.0051177 	21140 
33.017 	0.0051177 	20974 
33.517 	0.0051177 	20974 
34.017 	0.0051177 	20974 
34.517 	0.0051177 	20974 
35.017 	0.0051177 	20974 
35.517 	0.0051177 	21140 
36.017 	0.0051177 	20974 
36.517 	0.0051177 	20974 
37.017 	0.0051177 	20807 
37.517 	0.0051177 	20974 
38.017 	0.0051177 	20974 
38.517 	0.0051177 	20974 
39.017 	0.0051177 	20974 
39.517 	0.0051177 	20974 
40.017 	0.0051177 	20974 
40.517 	0.0050111 	20974 
41.017 	0.0051177 	20974 
41.517 	0.0050111 	20974 
42.017 	0.0050111 	20974 
42.517 	0.0050111 	20974 
43.017 	0.0051177 	20974 
43.517 	0.0050111 	20974 
44.017 	0.0051177 	20974 
44.517 	0.0051177 	20974 
45.017 	0.0051177 	20974 
45.517 	0.0050111 	20974 
46.017 	0.0050111 	20974 
46.517 	0.0050111 	20974 
47.017 	0.0050111 	20974 
47.517 	0.0050111 	20974 
48.017 	0.0051177 	20974 
48.517 	0.0050111 	20974 
49.017 	0.0050111 	20807 
49.517 	0.0050111 	20974 
50.017 	0.0050111 	20974 
50.517 	0.0050111 	20974 
51.017 	0.0050111 	20974 
51.517 	0.0050111 	20974 
52.017 	0.0050111 	20974 
52.517 	0.0050111 	20974 
53.017 	0.0050111 	20974 
53.517 	0.0050111 	20974 
54.017 	0.0050111 	20974 
54.517 	0.0050111 	20974 
55.017 	0.0050111 	20974 
55.517 	0.0050111 	20807 
56.017 	0.0050111 	20974 
56.517 	0.0051177 	20974 
57.017 	0.0051177 	20974 
57.517 	0.0051177 	20974 
58.017 	0.0051177 	20974 
58.517 	0.0051177 	20974 
59.017 	0.0050111 	20974 
59.517 	0.0050111 	20974 
60.017 	0.0051177 	20974 
60.517 	0.0050111 	21140 
61.017 	0.0051177 	20974 
61.517 	0.0051177 	20974 
62.017 	0.0052243 	20974 
62.517 	0.0051177 	20974 
63.017 	0.0052243 	20974 
63.517 	0.0052243 	20974 
64.017 	0.0051177 	20974 
64.517 	0.0052243 	20974 
65.017 	0.0052243 	20974 
65.517 	0.0053309 	20974 
66.017 	0.0053309 	20974 
66.517 	0.0053309 	20974 
67.017 	0.0053309 	20974 
67.517 	0.0054375 	20974 
68.017 	0.0054375 	20807 
68.517 	0.0054375 	20974 
69.017 	0.0054375 	20974 
69.517 	0.0054375 	20974 
70.017 	0.0054375 	20974 
70.517 	0.0054375 	20974 
71.017 	0.0054375 	20807 
71.517 	0.0054375 	20807 
72.017 	0.0054375 	20974 
72.517 	0.0055441 	21140 
73.017 	0.0055441 	21140 
73.517 	0.0055441 	20974 
74.017 	0.0055441 	20974 
74.517 	0.0055441 	20974 
75.017 	0.0055441 	20974 
75.517 	0.0055441 	20974 
76.017 	0.0055441 	20974 
76.517 	0.0055441 	20974 
77.017 	0.0056508 	20974 
77.517 	0.0055441 	20974 
78.017 	0.0056508 	20974 
78.517 	0.0056508 	20974 
79.017 	0.0056508 	20974 
79.517 	0.0057574 	20974 
80.017 	0.0057574 	20974 
80.517 	0.0057574 	20974 
81.017 	0.0057574 	20641 
81.517 	0.0056508 	20141 
82.017 	0.0055441 	19642 
82.517 	0.0053309 	19143 
83.017 	0.0053309 	18477 
83.517 	0.0051177 	17977 
84.017 	0.0050111 	17644 
84.417 	0.0050111 	16979 
84.917 	0.0049044 	16646 
85.417 	0.0046912 	16313 
85.750 	0.0046912 	15647 
86.250 	0.0044780 	15314 
86.750 	0.0044780 	14815 
87.250 	0.0042647 	14315 
87.750 	0.0042647 	13982 
88.250 	0.0041581 	13649 
88.750 	0.0040515 	13317 
89.167 	0.0039449 	12651 
89.550 	0.0038383 	11985 
90.050 	0.0037316 	11486 
90.550 	0.0035184 	10820 
91.050 	0.0034118 	10320 
91.550 	0.0031985 	9820.9 
92.050 	0.0030919 	9321.6 
92.550 	0.0029853 	8822.2 
93.050 	0.0027721 	8322.8 
93.517 	0.0026655 	7657.0 
94.017 	0.0024522 	7157.6 
94.517 	0.0023456 	6824.7 
94.967 	0.0022390 	6158.9 
95.467 	0.0020257 	5992.4 
95.867 	0.0019191 	5326.6 
96.367 	0.0018125 	4827.2 
96.867 	0.0015993 	4494.3 
97.367 	0.0014927 	3995.0 
97.817 	0.0013860 	3329.1 
98.317 	0.0012794 	2829.8 
98.817 	0.0010662 	2330.4 
99.317 	0.00095956 	1997.5 
99.817 	0.00074633 	1664.6 
100.32 	0.00074633 	1498.1 
100.82 	0.00074633 	1498.1 
101.32 	0.00074633 	1331.7 
101.82 	0.00074633 	1165.2 
102.32 	0.00074633 	1331.7 
102.82 	0.00074633 	1331.7 
103.32 	0.00074633 	1331.7 
103.82 	0.00074633 	1165.2 
104.32 	0.00074633 	1165.2 
104.82 	0.00074633 	1331.7 
105.32 	0.00085294 	1165.2 
105.82 	0.00074633 	998.74 
106.32 	0.00085294 	1165.2 
106.82 	0.00085294 	1331.7 
107.32 	0.00085294 	1165.2 
107.82 	0.00085294 	1165.2 
108.32 	0.00085294 	1165.2 
108.82 	0.00085294 	1331.7 
109.32 	0.00095956 	1165.2 
109.82 	0.00085294 	1165.2 
110.32 	0.00085294 	1165.2 
110.82 	0.00095956 	1165.2 
111.32 	0.00095956 	1331.7 
111.82 	0.00085294 	1165.2 
112.32 	0.00095956 	1165.2 
112.82 	0.00095956 	1165.2 
113.32 	0.00095956 	1331.7 
113.82 	0.0010662 	1165.2 
114.32 	0.00095956 	1165.2 
114.82 	0.0010662 	1165.2 
115.32 	0.0011728 	1331.7 
115.82 	0.0012794 	1165.2 
116.32 	0.0013860 	998.74 
116.82 	0.0014927 	1165.2 
117.32 	0.0015993 	1165.2 
117.82 	0.0017059 	1331.7 
118.32 	0.0018125 	1165.2 
118.82 	0.0019191 	1165.2 
119.32 	0.0021324 	1165.2 
119.82 	0.0022390 	1331.7 
120.32 	0.0022390 	1165.2 
120.82 	0.0023456 	1165.2 
121.32 	0.0023456 	1165.2 
121.82 	0.0023456 	1331.7 
122.32 	0.0023456 	1165.2 
122.82 	0.0024522 	998.74 
123.32 	0.0025588 	1165.2 
123.82 	0.0024522 	1331.7 
124.32 	0.0026655 	1165.2 
124.82 	0.0027721 	998.74 
125.32 	0.0027721 	1165.2 
125.82 	0.0028787 	1165.2 
126.32 	0.0029853 	1331.7 
126.82 	0.0031985 	998.74 
127.32 	0.0034118 	998.74 
127.68 	0.0038383 	1331.7 
128.12 	0.0042647 	1165.2 
128.58 	0.0046912 	1165.2 
128.75 	0.0051177 	1331.7 
129.03 	0.0055441 	1165.2 
129.13 	0.0059706 	1165.2 
129.18 	0.0063971 	1165.2 
129.25 	0.0068236 	1165.2 
129.28 	0.0072500 	998.74 
129.32 	0.0078897 	998.74 
129.33 	0.0084228 	1165.2 
129.35 	0.0093824 	1165.2 
129.37 	0.011408 	1165.2 
129.38 	0.015673 	1165.2 
129.40 	0.014500 	1165.2 
129.42 	0.013647 	1165.2 
129.43 	0.014500 	1165.2 
129.45 	0.0087427 	1165.2 
129.47 	0.0054375 	1165.2 
129.48 	0.0049044 	1165.2 
129.70 	0.0053309 	1165.2 
129.73 	0.0062905 	1331.7 
129.77 	0.0056508 	1331.7 
129.98 	0.0052243 	1165.2 
130.28 	0.0056508 	1331.7 
130.33 	0.0061839 	1165.2 
130.37 	0.0068236 	1165.2 
130.42 	0.0063971 	1165.2 
130.47 	0.0059706 	1165.2 
130.97 	0.0060772 	1165.2 
131.10 	0.0065037 	1165.2 
131.22 	0.0059706 	1331.7 
131.38 	0.0063971 	998.74 
131.42 	0.0059706 	1165.2 
131.53 	0.0066103 	1165.2 
131.77 	0.0071434 	1165.2 
131.78 	0.0083162 	1165.2 
131.80 	0.0088493 	1165.2 
131.87 	0.0084228 	1165.2 
131.92 	0.0075699 	1165.2 
131.95 	0.0071434 	1165.2 
132.03 	0.0087427 	1165.2 
132.08 	0.0079964 	998.74 
132.13 	0.0085294 	1165.2 
132.15 	0.0090625 	1165.2 
132.20 	0.0084228 	998.74 
132.22 	0.0079964 	1331.7 
132.32 	0.0088493 	1165.2 
132.33 	0.0097022 	1165.2 
132.35 	0.010342 	1165.2 
132.38 	0.0094890 	1165.2 
132.45 	0.010235 	1331.7 
132.48 	0.011195 	998.74 
132.50 	0.012794 	1165.2 
132.53 	0.012154 	1331.7 
132.55 	0.012794 	1165.2 
132.57 	0.012154 	1165.2 
132.58 	0.012901 	1165.2 
132.60 	0.015033 	1165.2 
132.63 	0.013327 	1165.2 
132.68 	0.014393 	1165.2 
132.70 	0.014927 	1165.2 
132.72 	0.015993 	998.74 
132.73 	0.013114 	1331.7 
132.75 	0.010555 	1165.2 
132.77 	0.014820 	1331.7 
132.78 	0.017272 	1165.2 
132.80 	0.014713 	1165.2 
132.82 	0.013967 	1331.7 
132.83 	0.015246 	998.74 
132.87 	0.014393 	1165.2 
132.88 	0.012261 	1165.2 
132.90 	0.0098089 	1165.2 
132.92 	0.0090625 	1165.2 
132.93 	0.0097022 	1165.2 
132.95 	0.010235 	1165.2 
132.97 	0.010982 	1331.7 
133.02 	0.010555 	1165.2 
133.05 	0.011195 	1165.2 
133.07 	0.010235 	998.74 
133.08 	0.0085294 	1165.2 
133.10 	0.0076765 	998.74 
133.15 	0.0082096 	1165.2 
133.18 	0.0086361 	1165.2 
133.22 	0.0092758 	1165.2 
133.37 	0.0099155 	1331.7 
133.40 	0.0092758 	1331.7 
133.43 	0.0099155 	1331.7 
133.45 	0.010342 	1165.2 
133.48 	0.0099155 	1165.2 
133.55 	0.010342 	1165.2 
133.58 	0.010768 	1165.2 
133.63 	0.0097022 	1331.7 
133.65 	0.0084228 	1165.2 
133.67 	0.0077831 	1165.2 
133.70 	0.0073566 	1165.2 
133.75 	0.0069302 	1331.7 
134.25 	0.0070368 	1165.2 
134.75 	0.0072500 	998.74 
135.18 	0.0068236 	998.74 
135.53 	0.0063971 	1165.2 
136.03 	0.0059706 	1165.2 
136.53 	0.0056508 	1331.7 
137.03 	0.0055441 	1165.2 
137.53 	0.0053309 	1165.2 
138.03 	0.0051177 	1165.2 
138.53 	0.0052243 	1165.2 
139.03 	0.0053309 	1165.2 
139.53 	0.0051177 	1331.7 
140.03 	0.0052243 	1165.2 
140.53 	0.0051177 	1165.2 
141.03 	0.0050111 	1331.7 
141.53 	0.0050111 	1165.2 
142.03 	0.0050111 	1165.2 
142.53 	0.0050111 	1165.2 
143.03 	0.0050111 	1165.2 
143.53 	0.0049044 	1165.2 
144.03 	0.0050111 	1165.2 
144.53 	0.0049044 	1165.2 
145.03 	0.0049044 	998.74 
145.53 	0.0047978 	1165.2 
146.03 	0.0046912 	1331.7 
146.53 	0.0045846 	1165.2 
147.03 	0.0045846 	1165.2 
147.53 	0.0045846 	1165.2 
148.03 	0.0045846 	1165.2 
148.53 	0.0044780 	1165.2 
149.03 	0.0043713 	998.74 
149.53 	0.0045846 	1165.2 
150.03 	0.0045846 	1165.2 
150.53 	0.0046912 	1165.2 
151.03 	0.0045846 	998.74 
151.53 	0.0045846 	1165.2 
152.03 	0.0045846 	1165.2 
152.53 	0.0043713 	1165.2 
153.03 	0.0044780 	1165.2 
153.53 	0.0044780 	1165.2 
154.03 	0.0043713 	998.74 
154.53 	0.0044780 	1165.2 
155.03 	0.0043713 	1331.7 
155.53 	0.0043713 	1165.2 
156.03 	0.0044780 	1165.2 
156.53 	0.0043713 	1165.2 
157.03 	0.0044780 	1331.7 
157.53 	0.0044780 	1331.7 
158.03 	0.0043713 	1165.2 
158.53 	0.0042647 	1165.2 
159.03 	0.0042647 	1165.2 
159.53 	0.0042647 	1165.2 
159.77 	0.00000 	1165.2 
160.27 	0.00010662 	1165.2 
160.77 	0.00010662 	998.74 
161.27 	0.00021324 	1165.2 
161.77 	0.00021324 	1165.2 
162.27 	0.00010662 	1331.7 
162.77 	0.00021324 	1664.6 
163.27 	0.00042647 	2163.9 
163.77 	0.00031985 	2663.3 
164.23 	0.00042647 	3329.1 
164.73 	0.00053309 	3828.5 
165.23 	0.00074633 	4327.9 
165.73 	0.00085294 	4827.2 
166.12 	0.00095956 	5493.1 
166.62 	0.00095956 	5826.0 
167.08 	0.0011728 	6491.8 
167.58 	0.0012794 	6991.2 
168.08 	0.0013860 	7490.6 
168.58 	0.0014927 	7823.5 
169.00 	0.0015993 	8489.3 
169.50 	0.0017059 	8988.7 
170.00 	0.0018125 	9321.6 
170.38 	0.0019191 	9987.4 
170.88 	0.0020257 	10320 
171.38 	0.0022390 	10986 
171.88 	0.0022390 	11319 
172.38 	0.0023456 	11652 
172.88 	0.0023456 	12151 
173.38 	0.0024522 	12651 
173.88 	0.0026655 	13150 
174.28 	0.0027721 	13816 
174.78 	0.0029853 	14482 
175.28 	0.0030919 	14981 
175.75 	0.0031985 	15647 
176.25 	0.0031985 	15980 
176.68 	0.0033052 	16646 
177.18 	0.0035184 	17145 
177.68 	0.0036250 	17644 
178.18 	0.0038383 	18144 
178.68 	0.0039449 	18643 
179.18 	0.0039449 	19309 
179.68 	0.0042647 	19642 
180.18 	0.0042647 	20141 
180.68 	0.0043713 	20474 
181.18 	0.0044780 	20641 
181.68 	0.0045846 	20807 
182.18 	0.0046912 	20974 
182.68 	0.0047978 	20974 
183.18 	0.0047978 	20974 
183.68 	0.0049044 	20974 
184.18 	0.0047978 	20974 
184.68 	0.0049044 	20974 
185.18 	0.0049044 	20974 
185.68 	0.0049044 	20807 
186.18 	0.0049044 	20974 
186.68 	0.0049044 	20807 
187.18 	0.0049044 	20974 
187.68 	0.0050111 	20974 
188.18 	0.0049044 	20974 
188.68 	0.0049044 	20974 
189.18 	0.0049044 	20974 
189.68 	0.0047978 	20807 
190.18 	0.0049044 	20974 
190.68 	0.0049044 	20974 
191.18 	0.0049044 	20974 
191.68 	0.0049044 	20974 
192.18 	0.0047978 	20974 
192.68 	0.0047978 	20974 
193.18 	0.0047978 	20974 
193.68 	0.0046912 	20974 
194.18 	0.0047978 	20974 
194.68 	0.0046912 	20974 
195.18 	0.0046912 	20974 
195.68 	0.0046912 	20974 
196.18 	0.0046912 	20974 
196.68 	0.0046912 	21140 
197.18 	0.0046912 	20807 
197.68 	0.0045846 	20974 
198.18 	0.0046912 	20974 
198.68 	0.0045846 	20974 
199.18 	0.0046912 	20974 
199.68 	0.0045846 	20974 
200.18 	0.0045846 	20974 
200.68 	0.0045846 	20974 
201.18 	0.0045846 	20974 
201.68 	0.0045846 	20974 
202.18 	0.0045846 	20974 
202.68 	0.0045846 	20974 
203.18 	0.0045846 	20974 
203.68 	0.0045846 	20974 
204.18 	0.0045846 	20974 
204.68 	0.0045846 	20974 
205.18 	0.0045846 	20974 
205.68 	0.0044780 	21140 
206.18 	0.0043713 	20974 
206.68 	0.0044780 	20974 
207.18 	0.0043713 	20974 
207.68 	0.0043713 	20974 
208.18 	0.0043713 	21140 
208.68 	0.0043713 	20974 
209.18 	0.0044780 	20974 
209.68 	0.0043713 	20974 
210.18 	0.0043713 	20974 
210.68 	0.0043713 	20974 
211.18 	0.0042647 	20974 
211.68 	0.0042647 	20974 
212.18 	0.0042647 	20974 
212.68 	0.0041581 	20974 
213.18 	0.0041581 	20974 
213.68 	0.0040515 	20974 
214.18 	0.0039449 	20974 
214.68 	0.0037316 	20974 
215.18 	0.0036250 	20807 
215.68 	0.0034118 	20974 
216.18 	0.0034118 	20974 
216.68 	0.0033052 	21140 
217.18 	0.0033052 	20974 
217.68 	0.0033052 	20974 
218.18 	0.0033052 	20974 
218.68 	0.0031985 	20974 
219.18 	0.0031985 	20974 
219.68 	0.0031985 	20974 
220.18 	0.0030919 	20974 
220.68 	0.0029853 	20974 
221.18 	0.0029853 	20974 
221.68 	0.0029853 	20974 
222.18 	0.0029853 	20974 
222.68 	0.0029853 	20974 
223.18 	0.0028787 	20807 
223.68 	0.0028787 	20974 
224.18 	0.0029853 	20974 
224.68 	0.0028787 	21140 
225.18 	0.0028787 	20974 
225.68 	0.0028787 	20974 
226.18 	0.0028787 	20974 
226.68 	0.0028787 	20974 
227.18 	0.0028787 	20974 
227.68 	0.0027721 	20974 
228.18 	0.0026655 	20807 
228.68 	0.0026655 	20974 
229.18 	0.0024522 	20807 
229.68 	0.0024522 	20974 
230.18 	0.0023456 	20974 
230.68 	0.0022390 	20974 
231.18 	0.0022390 	20974 
231.68 	0.0022390 	20974 
232.18 	0.0022390 	20807 
232.68 	0.0021324 	20974 
233.18 	0.0021324 	20974 
233.68 	0.0021324 	21140 
234.18 	0.0021324 	20974 
234.68 	0.0021324 	20974 
235.18 	0.0021324 	20974 
235.68 	0.0021324 	20974 
236.18 	0.0021324 	20974 
236.68 	0.0021324 	20974 
237.18 	0.0020257 	20974 
237.68 	0.0020257 	20974 
238.18 	0.0021324 	20974 
238.68 	0.0021324 	20974 
239.18 	0.0021324 	20974 
239.68 	0.0021324 	20974 
240.18 	0.0021324 	20974 
240.68 	0.0021324 	20974 
241.18 	0.0020257 	20974 
241.68 	0.0019191 	20474 
242.18 	0.0018125 	19975 
242.62 	0.0018125 	19309 
243.12 	0.0015993 	18810 
243.62 	0.0014927 	18310 
244.12 	0.0013860 	17811 
244.62 	0.0011728 	17312 
245.12 	0.0010662 	16812 
245.22 	0.00063971 	16646 
245.72 	0.00042647 	16146 
246.22 	0.00021324 	15647 
246.72 	0.00010662 	15148 
247.22 	-0.0001068 	14648 
247.72 	-0.0002136 	14315 
248.22 	-0.0003204 	13982 
248.72 	-0.0004273 	13483 
249.22 	-0.0005341 	13150 
249.67 	-0.0007478 	12484 
250.02 	-0.0008546 	11818 
250.52 	-0.0010683 	11319 
251.02 	-0.0011751 	10820 
251.52 	-0.0013888 	10154 
252.02 	-0.0014956 	9820.9 
252.48 	-0.0016025 	9155.1 
252.98 	-0.0017093 	8655.8 
253.48 	-0.0019230 	8156.4 
253.98 	-0.0020298 	7657.0 
254.48 	-0.0022435 	7157.6 
254.98 	-0.0023503 	6824.7 
255.35 	-0.0025639 	6158.9 
255.85 	-0.0026708 	5826.0 
256.30 	-0.0027776 	5160.2 
256.80 	-0.0028844 	4660.8 
257.30 	-0.0029913 	4327.9 
257.80 	-0.0032049 	3995.0 
258.17 	-0.0032049 	3329.1 
258.67 	-0.0035254 	2996.2 
259.17 	-0.0036323 	2330.4 
259.67 	-0.0037391 	1997.5 
260.17 	-0.0038459 	1664.6 
260.67 	-0.0039527 	1331.7 
261.17 	-0.0039527 	1498.1 
261.67 	-0.0039527 	1331.7 
262.17 	-0.0039527 	1331.7 
262.67 	-0.0039527 	1331.7 
263.17 	-0.0040596 	1165.2 
263.67 	-0.0040596 	1165.2 
264.17 	-0.0040596 	1165.2 
264.67 	-0.0040596 	1331.7 
265.17 	-0.0040596 	1165.2 
265.67 	-0.0040596 	1165.2 
266.17 	-0.0040596 	1165.2 
266.67 	-0.0040596 	1165.2 
267.17 	-0.0040596 	1331.7 
267.67 	-0.0040596 	1165.2 
268.17 	-0.0040596 	1165.2 
268.67 	-0.0040596 	1165.2 
269.17 	-0.0040596 	1331.7 
269.67 	-0.0040596 	1165.2 
270.17 	-0.0040596 	998.74 
270.67 	-0.0040596 	1165.2 
271.17 	-0.0040596 	1165.2 
271.67 	-0.0040596 	1165.2 
272.17 	-0.0039527 	1165.2 
272.67 	-0.0040596 	1165.2 
273.17 	-0.0040596 	1331.7 
273.67 	-0.0039527 	1331.7 
274.17 	-0.0039527 	1165.2 
274.67 	-0.0040596 	1165.2 
275.17 	-0.0039527 	1165.2 
275.67 	-0.0040596 	1331.7 
276.17 	-0.0039527 	1165.2 
276.67 	-0.0039527 	1165.2 
277.17 	-0.0039527 	998.74 
277.67 	-0.0039527 	1165.2 
278.17 	-0.0039527 	1331.7 
278.67 	-0.0039527 	1165.2 
279.17 	-0.0039527 	1165.2 
279.67 	-0.0039527 	1165.2 
280.17 	-0.0039527 	1165.2 
280.67 	-0.0039527 	1331.7 
281.17 	-0.0039527 	1165.2 
281.67 	-0.0039527 	1165.2 
282.17 	-0.0038459 	1165.2 
282.67 	-0.0038459 	1165.2 
283.17 	-0.0038459 	1165.2 
283.67 	-0.0038459 	1165.2 
284.17 	-0.0038459 	1331.7 
284.67 	-0.0038459 	1165.2 
285.17 	-0.0037391 	998.74 
285.67 	-0.0037391 	1165.2 
286.17 	-0.0037391 	1165.2 
286.67 	-0.0037391 	1331.7 
287.17 	-0.0037391 	1165.2 
287.67 	-0.0036323 	1165.2 
288.17 	-0.0036323 	1165.2 
288.67 	-0.0035254 	1165.2 
289.17 	-0.0035254 	1165.2 
289.67 	-0.0034186 	1165.2 
290.17 	-0.0034186 	998.74 
290.67 	-0.0034186 	1165.2 
291.17 	-0.0034186 	1331.7 
291.67 	-0.0034186 	1165.2 
292.17 	-0.0034186 	1165.2 
292.67 	-0.0034186 	1165.2 
293.17 	-0.0034186 	1165.2 
293.67 	-0.0034186 	1165.2 
294.17 	-0.0034186 	998.74 
294.67 	-0.0035254 	1165.2 
295.17 	-0.0035254 	1331.7 
295.67 	-0.0035254 	1165.2 
296.17 	-0.0035254 	1165.2 
296.62 	-0.0026708 	1331.7 
296.63 	0.00000 	1165.2 
297.13 	-0.0001068 	1331.7 
297.63 	-0.0001068 	1165.2 
298.13 	-0.0001068 	1165.2 
298.63 	-0.0001068 	1165.2 
299.13 	-0.0002136 	1331.7 
299.63 	-0.0002136 	1165.2 
300.13 	-0.0002136 	998.74 
300.63 	-0.0002136 	1165.2 
301.13 	-0.0002136 	1165.2 
301.63 	-0.0003204 	1331.7 
302.13 	-0.0003204 	1165.2 
302.63 	-0.0003204 	998.74 
303.13 	-0.0003204 	1165.2 
303.63 	-0.0003204 	1331.7 
304.13 	-0.0003204 	1165.2 
304.63 	-0.0003204 	998.74 
305.13 	-0.0003204 	998.74 
305.63 	-0.0004273 	1165.2 
306.13 	-0.0004273 	1165.2 
306.63 	-0.0004273 	1165.2 
307.13 	-0.0004273 	1331.7 
307.63 	-0.0004273 	1165.2 
308.13 	-0.0005341 	1165.2 
308.63 	-0.0005341 	1165.2 
309.13 	-0.0005341 	1165.2 
309.63 	-0.0005341 	1165.2 
310.13 	-0.0005341 	998.74 
310.63 	-0.0005341 	1165.2 
311.13 	-0.0005341 	1165.2 
311.63 	-0.0006409 	1165.2 
312.13 	-0.0006409 	1165.2 
312.63 	-0.0006409 	998.74 
313.13 	-0.0006409 	1165.2 
313.63 	-0.0007478 	1165.2 
314.13 	-0.0007478 	1165.2 
314.63 	-0.0006409 	998.74 
315.13 	-0.0007478 	1165.2 
315.63 	-0.0007478 	1165.2 
316.13 	-0.0006409 	1331.7 
316.63 	-0.0007478 	1165.2 
317.13 	-0.0007478 	998.74 
317.63 	-0.0007478 	1331.7 
318.13 	-0.0007478 	1165.2 
318.63 	-0.0008546 	1331.7 
319.13 	-0.0008546 	1331.7 
319.63 	-0.0008546 	1331.7 
320.13 	-0.0008546 	1165.2 
320.63 	-0.0008546 	1165.2 
321.13 	-0.0008546 	998.74 
321.63 	-0.0008546 	998.74 
322.13 	-0.0008546 	1331.7 
322.63 	-0.0007478 	1498.1 
323.13 	-0.0007478 	1997.5 
323.63 	-0.0006409 	2163.9 
324.02 	-0.0005341 	2829.8 
324.52 	-0.0004273 	3162.7 
324.97 	-0.0002136 	3828.5 
325.47 	-0.0001068 	4327.9 
325.90 	0.00000 	4993.7 
326.40 	0.00010662 	5326.6 
326.83 	0.00021324 	5992.4 
327.33 	0.00042647 	6325.4 
327.72 	0.00042647 	6991.2 
328.22 	0.00053309 	7324.1 
328.72 	0.00063971 	7989.9 
329.22 	0.00074633 	8322.8 
329.67 	0.00085294 	8988.7 
330.17 	0.00095956 	9321.6 
330.62 	0.0010662 	9987.4 
331.12 	0.0011728 	10487 
331.62 	0.0012794 	10986 
332.12 	0.0013860 	11319 
332.62 	0.0014927 	11652 
333.12 	0.0015993 	12151 
333.62 	0.0017059 	12651 
334.12 	0.0018125 	13150 
334.47 	0.0019191 	13816 
334.97 	0.0021324 	14482 
335.47 	0.0022390 	14981 
335.97 	0.0023456 	15480 
336.42 	0.0024522 	16146 
336.92 	0.0026655 	16479 
337.38 	0.0027721 	17145 
337.88 	0.0028787 	17644 
338.38 	0.0029853 	18144 
338.88 	0.0030919 	18643 
339.28 	0.0031985 	19309 
339.78 	0.0033052 	19642 
340.28 	0.0034118 	20141 
340.78 	0.0035184 	20474 
341.28 	0.0035184 	20641 
341.78 	0.0036250 	20807 
342.28 	0.0036250 	20974 
342.78 	0.0036250 	20974 
343.28 	0.0036250 	20974 
343.78 	0.0036250 	20807 
344.28 	0.0037316 	20974 
344.78 	0.0036250 	20974 
345.28 	0.0037316 	20974 
345.78 	0.0037316 	20807 
346.28 	0.0036250 	20974 
346.78 	0.0037316 	20974 
347.28 	0.0037316 	20974 
347.78 	0.0036250 	20974 
348.28 	0.0037316 	20974 
348.78 	0.0037316 	20974 
349.28 	0.0036250 	20974 
349.78 	0.0037316 	20974 
350.28 	0.0037316 	20974 
350.78 	0.0036250 	20974 
351.28 	0.0036250 	20974 
351.78 	0.0036250 	20974 
352.28 	0.0037316 	20974 
352.78 	0.0036250 	20974 
353.28 	0.0036250 	20974 
353.78 	0.0036250 	20974 
354.28 	0.0036250 	20974 
354.78 	0.0036250 	20807 
355.28 	0.0036250 	20974 
355.78 	0.0036250 	20974 
356.28 	0.0036250 	20974 
356.78 	0.0036250 	20974 
357.28 	0.0036250 	20974 
357.78 	0.0036250 	20974 
358.28 	0.0036250 	20974 
358.78 	0.0036250 	20974 
359.28 	0.0036250 	20974 
359.78 	0.0036250 	20974 
360.28 	0.0036250 	20974 
360.78 	0.0036250 	20807 
361.28 	0.0036250 	20974 
361.78 	0.0036250 	20974 
362.28 	0.0036250 	20974 
362.78 	0.0036250 	20974 
363.28 	0.0036250 	20974 
363.78 	0.0036250 	20974 
364.28 	0.0035184 	20974 
364.78 	0.0036250 	21140 
365.28 	0.0036250 	21140 
365.78 	0.0036250 	20974 
366.28 	0.0036250 	20974 
366.78 	0.0036250 	20974 
367.28 	0.0036250 	20974 
367.78 	0.0035184 	20974 
368.28 	0.0036250 	20974 
368.78 	0.0036250 	20974 
369.28 	0.0036250 	20974 
369.78 	0.0036250 	20974 
370.28 	0.0036250 	20974 
370.78 	0.0035184 	21140 
371.28 	0.0035184 	20807 
371.78 	0.0035184 	20974 
372.28 	0.0036250 	20974 
372.78 	0.0036250 	21140 
373.28 	0.0036250 	21140 
373.78 	0.0036250 	21140 
374.28 	0.0035184 	20807 
374.78 	0.0036250 	20974 
375.28 	0.0036250 	20974 
375.78 	0.0036250 	20974 
376.28 	0.0036250 	20974 
376.78 	0.0036250 	20974 
377.28 	0.0035184 	20974 
377.78 	0.0035184 	20974 
378.28 	0.0036250 	20974 
378.78 	0.0036250 	20974 
379.28 	0.0036250 	20974 
379.78 	0.0036250 	20974 
380.28 	0.0036250 	20974 
380.78 	0.0036250 	20974 
381.28 	0.0036250 	20974 
381.78 	0.0036250 	20974 
382.28 	0.0036250 	20974 
382.78 	0.0036250 	20974 
383.28 	0.0036250 	20974 
383.78 	0.0036250 	20807 
384.28 	0.0036250 	20974 
384.78 	0.0036250 	20974 
385.28 	0.0036250 	20974 
385.78 	0.0037316 	20974 
386.28 	0.0036250 	20974 
386.78 	0.0037316 	20974 
387.28 	0.0036250 	20974 
387.78 	0.0037316 	20974 
388.28 	0.0037316 	20974 
388.78 	0.0037316 	20974 
389.28 	0.0037316 	20974 
389.78 	0.0037316 	20974 
390.28 	0.0037316 	20807 
390.78 	0.0037316 	20974 
391.28 	0.0036250 	20974 
391.78 	0.0037316 	20974 
392.28 	0.0037316 	20974 
392.78 	0.0037316 	20974 
393.28 	0.0037316 	20974 
393.78 	0.0037316 	20974 
394.28 	0.0037316 	20974 
394.78 	0.0038383 	20974 
395.28 	0.0038383 	20974 
395.78 	0.0038383 	20807 
396.28 	0.0037316 	20807 
396.78 	0.0038383 	20974 
397.28 	0.0038383 	20974 
397.78 	0.0038383 	20974 
398.28 	0.0038383 	20974 
398.78 	0.0038383 	20974 
399.28 	0.0038383 	20974 
399.78 	0.0038383 	20974 
400.28 	0.0038383 	20974 
400.78 	0.0038383 	20974 
401.28 	0.0038383 	20974 
401.78 	0.0038383 	20474 
402.28 	0.0037316 	19975 
402.78 	0.0035184 	19309 
403.28 	0.0035184 	18810 
403.78 	0.0034118 	18310 
404.28 	0.0031985 	17811 
404.78 	0.0031985 	17312 
405.28 	0.0030919 	16812 
405.78 	0.0029853 	16146 
406.28 	0.0027721 	15647 
406.78 	0.0026655 	15314 
407.28 	0.0025588 	14815 
407.78 	0.0024522 	14482 
408.28 	0.0024522 	13982 
408.78 	0.0023456 	13483 
409.28 	0.0023456 	13150 
409.78 	0.0021324 	12651 
410.12 	0.0020257 	11985 
410.62 	0.0018125 	11486 
411.05 	0.0017059 	10820 
411.55 	0.0015993 	10320 
412.05 	0.0014927 	9987.4 
412.45 	0.0013860 	9321.6 
412.95 	0.0011728 	8822.2 
413.45 	0.0010662 	8489.3 
413.85 	0.00095956 	7823.5 
414.35 	0.00085294 	7657.0 
414.65 	0.00074633 	6991.2 
415.15 	0.00063971 	6658.3 
415.65 	0.00042647 	6158.9 
416.15 	0.00031985 	5659.5 
416.65 	0.00010662 	5160.2 
417.12 	0.00000 	4494.3 
417.62 	-0.0001068 	4161.4 
418.12 	-0.0003204 	3828.5 
418.55 	-0.0004273 	3162.7 
419.05 	-0.0006409 	2829.8 
419.45 	-0.0007478 	2163.9 
419.95 	-0.0008546 	1664.6 
420.45 	-0.0009614 	1664.6 
420.95 	-0.0009614 	1664.6 
421.45 	-0.0010683 	1498.1 
421.95 	-0.0010683 	1331.7 
422.45 	-0.0010683 	1498.1 
422.95 	-0.0010683 	1331.7 
423.45 	-0.0010683 	1165.2 
423.95 	-0.0010683 	1331.7 
424.45 	-0.0010683 	1165.2 
424.95 	-0.0010683 	998.74 
425.45 	-0.0010683 	1165.2 
425.95 	-0.0010683 	1331.7 
426.45 	-0.0010683 	1165.2 
426.95 	-0.0010683 	1331.7 
427.45 	-0.0010683 	1331.7 
427.95 	-0.0010683 	998.74 
428.45 	-0.0010683 	998.74 
428.95 	-0.0010683 	1165.2 
429.45 	-0.0010683 	1165.2 
429.95 	-0.0010683 	1165.2 
430.45 	-0.0011751 	1165.2 
430.95 	-0.0010683 	1165.2 
431.45 	-0.0010683 	1165.2 
431.95 	-0.0010683 	1331.7 
432.45 	-0.0010683 	1165.2 
432.95 	-0.0010683 	1165.2 
433.45 	-0.0010683 	1165.2 
433.95 	-0.0010683 	1165.2 
434.45 	-0.0010683 	1331.7 
434.95 	-0.0010683 	998.74 
435.45 	-0.0010683 	998.74 
435.95 	-0.0009614 	1165.2 
436.45 	-0.0009614 	1331.7 
436.95 	-0.0010683 	1165.2 
437.45 	-0.0009614 	1165.2 
437.95 	-0.0010683 	1331.7 
438.45 	-0.0009614 	1165.2 
438.95 	-0.0009614 	998.74 
439.45 	-0.0009614 	1165.2 
439.95 	-0.0009614 	1331.7 
440.45 	-0.0009614 	998.74 
440.95 	-0.0009614 	998.74 
441.45 	-0.0008546 	1165.2 
441.95 	-0.0008546 	1331.7 
442.45 	-0.0008546 	1165.2 
442.95 	-0.0008546 	1165.2 
443.45 	-0.0008546 	1165.2 
443.95 	-0.0008546 	1165.2 
444.45 	-0.0008546 	1165.2 
444.95 	-0.0008546 	1165.2 
445.45 	-0.0008546 	998.74 
445.95 	-0.0007478 	1165.2 
446.45 	-0.0007478 	1165.2 
446.95 	-0.0007478 	1165.2 
447.45 	-0.0007478 	998.74 
447.95 	-0.0007478 	998.74 
448.45 	-0.0009614 	1165.2 
448.95 	-0.0010683 	1331.7 
449.45 	-0.0012820 	1165.2 
449.95 	-0.0013888 	998.74 
450.45 	-0.0013888 	1165.2 
450.95 	-0.0014956 	1165.2 
451.45 	-0.0016025 	1165.2 
451.95 	-0.0018161 	1165.2 
452.45 	-0.0020298 	1165.2 
452.95 	-0.0021366 	1165.2 
453.45 	-0.0023503 	1165.2 
453.95 	-0.0024571 	1165.2 
454.45 	-0.0026708 	1165.2 
454.95 	-0.0026708 	1165.2 
455.45 	-0.0027776 	1331.7 
455.95 	-0.0028844 	1165.2 
456.45 	-0.0028844 	1165.2 
456.95 	-0.0028844 	998.74 
457.45 	-0.0028844 	998.74 
457.95 	-0.0029913 	1165.2 
458.45 	-0.0029913 	1165.2 
458.95 	-0.0029913 	1165.2 
459.45 	-0.0029913 	1165.2 
459.95 	-0.0030981 	1165.2 
460.45 	-0.0029913 	1165.2 
460.95 	-0.0029913 	998.74 
461.45 	-0.0030981 	1165.2 
461.95 	-0.0029913 	1165.2 
462.45 	-0.0030981 	1165.2 
462.95 	-0.0029913 	1165.2 
463.45 	-0.0029913 	1165.2 
463.95 	-0.0029913 	1165.2 
464.45 	-0.0029913 	1165.2 
464.95 	-0.0029913 	1165.2 
465.45 	-0.0030981 	998.74 
465.95 	-0.0030981 	1165.2 
466.45 	-0.0029913 	1331.7 
466.95 	-0.0030981 	1165.2 
467.45 	-0.0030981 	1165.2 
467.95 	-0.0030981 	998.74 
468.45 	-0.0029913 	998.74 
468.95 	-0.0029913 	998.74 
469.45 	-0.0029913 	1165.2 
469.95 	-0.0029913 	1331.7 
470.45 	-0.0028844 	1165.2 
470.95 	-0.0028844 	1165.2 
471.45 	-0.0028844 	1165.2 
471.95 	-0.0028844 	1331.7 
472.45 	-0.0028844 	1165.2 
472.95 	-0.0028844 	1165.2 
473.45 	-0.0028844 	1165.2 
473.95 	-0.0028844 	1165.2 
474.45 	-0.0028844 	1331.7 
474.95 	-0.0028844 	1165.2 
475.45 	-0.0028844 	1165.2 
475.95 	-0.0029913 	998.74 
476.45 	-0.0029913 	1165.2 
476.95 	-0.0028844 	1165.2 
477.45 	-0.0028844 	1331.7 
477.95 	-0.0028844 	1165.2 
478.45 	-0.0028844 	1331.7 
478.95 	-0.0027776 	1165.2 
479.45 	-0.0027776 	1165.2 
479.95 	-0.0026708 	998.74 
480.45 	-0.0025639 	998.74 
480.95 	-0.0024571 	998.74 
481.45 	-0.0024571 	1165.2 
481.85 	-0.0024571 	998.74 
482.35 	-0.0023503 	1165.2 
482.85 	-0.0022435 	1331.7 
483.35 	-0.0022435 	998.74 
483.85 	-0.0022435 	998.74 
484.35 	-0.0021366 	1165.2 
484.85 	-0.0021366 	1331.7 
485.35 	-0.0021366 	1165.2 
485.85 	-0.0020298 	998.74 
486.35 	-0.0020298 	1165.2 
486.85 	-0.0020298 	1165.2 
487.35 	-0.0020298 	1331.7 
487.85 	-0.0020298 	1165.2 
488.35 	-0.0019230 	1165.2 
488.85 	-0.0019230 	998.74 
489.35 	-0.0019230 	1165.2 
489.85 	-0.0019230 	1165.2 
490.35 	-0.0019230 	1165.2 
490.85 	-0.0019230 	998.74 
491.35 	-0.0019230 	1165.2 
491.85 	-0.0018161 	1331.7 
492.35 	-0.0018161 	1165.2 
492.85 	-0.0018161 	1165.2 
493.35 	-0.0017093 	1165.2 
493.85 	-0.0017093 	1165.2 
494.35 	-0.0017093 	1331.7 
494.85 	-0.0017093 	1165.2 
495.35 	-0.0017093 	1165.2 
495.85 	-0.0017093 	1165.2 
496.35 	-0.0017093 	1165.2 
496.85 	-0.0017093 	1331.7 
497.35 	-0.0016025 	1165.2 
497.85 	-0.0016025 	1165.2 
498.35 	-0.0016025 	1165.2 
498.85 	-0.0016025 	1165.2 
499.35 	-0.0014956 	1165.2 
499.85 	-0.0014956 	1331.7 
500.35 	-0.0014956 	1165.2 
500.85 	-0.0014956 	998.74 
501.35 	-0.0014956 	1165.2 
501.85 	-0.0013888 	1331.7 
502.35 	-0.0013888 	1165.2 
502.85 	-0.0013888 	1165.2 
503.35 	-0.0013888 	1165.2 
503.85 	-0.0012820 	1331.7 
504.35 	-0.0012820 	1165.2 
504.85 	-0.0012820 	1165.2 
505.35 	-0.0012820 	1331.7 
505.85 	-0.0011751 	1165.2 
506.35 	-0.0011751 	1165.2 
506.85 	-0.0012820 	998.74 
507.35 	-0.0012820 	998.74 
507.85 	-0.0013888 	1165.2 
508.35 	-0.0013888 	1331.7 
508.85 	-0.0013888 	1165.2 
509.35 	-0.0013888 	998.74 
509.85 	-0.0013888 	1165.2 
510.35 	-0.0012820 	1331.7 
510.85 	-0.0013888 	1165.2 
511.35 	-0.0012820 	1165.2 
511.83 	-0.0012820 	1331.7 
512.33 	-0.0012820 	1165.2 
512.83 	-0.0011751 	998.74 
513.33 	-0.0011751 	998.74 
513.83 	-0.0011751 	1498.1 
514.33 	-0.0010683 	1664.6 
514.83 	-0.0009614 	1997.5 
515.33 	-0.0007478 	2496.9 
515.82 	-0.0006409 	3162.7 
516.32 	-0.0005341 	3662.0 
516.82 	-0.0003204 	4327.9 
517.32 	-0.0001068 	4660.8 
517.68 	0.00000 	5326.6 
518.18 	0.00021324 	5826.0 
518.68 	0.00042647 	6325.4 
519.18 	0.00063971 	6658.3 
519.53 	0.00074633 	7324.1 
520.03 	0.00095956 	7657.0 
520.45 	0.0010662 	8322.8 
520.95 	0.0012794 	8655.8 
521.45 	0.0013860 	9155.1 
521.88 	0.0015993 	9820.9 
522.38 	0.0018125 	10154 
522.88 	0.0019191 	10653 
523.38 	0.0021324 	11153 
523.88 	0.0022390 	11486 
524.38 	0.0024522 	11985 
524.88 	0.0026655 	12484 
525.38 	0.0028787 	12817 
525.73 	0.0029853 	13483 
526.17 	0.0031985 	14149 
526.67 	0.0034118 	14648 
527.13 	0.0036250 	15314 
527.63 	0.0037316 	15813 
528.13 	0.0040515 	16313 
528.63 	0.0041581 	16979 
529.13 	0.0042647 	17312 
529.63 	0.0045846 	17977 
530.13 	0.0046912 	18477 
530.63 	0.0049044 	18976 
531.13 	0.0052243 	19475 
531.63 	0.0054375 	19975 
532.13 	0.0056508 	20474 
532.63 	0.0058640 	20641 
533.13 	0.0058640 	20807 
533.63 	0.0060772 	20974 
534.13 	0.0060772 	20974 
534.63 	0.0062905 	20974 
535.13 	0.0062905 	20974 
535.63 	0.0062905 	20974 
536.13 	0.0062905 	20974 
536.63 	0.0061839 	20974 
537.13 	0.0060772 	20974 
537.63 	0.0061839 	20807 
538.13 	0.0059706 	20974 
538.63 	0.0060772 	20974 
539.13 	0.0059706 	20974 
539.63 	0.0058640 	20974 
540.13 	0.0058640 	20807 
540.63 	0.0057574 	20974 
541.13 	0.0057574 	20974 
541.63 	0.0056508 	20974 
542.13 	0.0055441 	20974 
542.63 	0.0054375 	20974 
543.13 	0.0053309 	20974 
543.63 	0.0052243 	20974 
544.13 	0.0052243 	20974 
544.63 	0.0052243 	20974 
545.13 	0.0051177 	20974 
545.63 	0.0050111 	20974 
546.13 	0.0049044 	20974 
546.63 	0.0047978 	20974 
547.13 	0.0046912 	20974 
547.63 	0.0045846 	20974 
548.13 	0.0045846 	20974 
548.63 	0.0044780 	20974 
549.13 	0.0043713 	20807 
549.63 	0.0042647 	20974 
550.13 	0.0042647 	20974 
550.63 	0.0040515 	20974 
551.13 	0.0040515 	20974 
551.63 	0.0039449 	20974 
552.13 	0.0039449 	20974 
552.63 	0.0038383 	20974 
553.13 	0.0038383 	20974 
553.63 	0.0038383 	20974 
554.13 	0.0036250 	20807 
554.63 	0.0036250 	20807 
555.13 	0.0036250 	20974 
555.63 	0.0036250 	20974 
556.13 	0.0035184 	20974 
556.63 	0.0035184 	20974 
557.13 	0.0034118 	20974 
557.63 	0.0034118 	20974 
558.13 	0.0034118 	20974 
558.63 	0.0034118 	20974 
559.13 	0.0033052 	20974 
559.63 	0.0033052 	20974 
560.13 	0.0031985 	20974 
560.63 	0.0033052 	20974 
561.13 	0.0033052 	20974 
561.63 	0.0033052 	20974 
562.13 	0.0031985 	20974 
562.63 	0.0031985 	20974 
563.13 	0.0031985 	20974 
563.63 	0.0031985 	20974 
564.13 	0.0030919 	20974 
564.63 	0.0030919 	20974 
565.13 	0.0030919 	20974 
565.63 	0.0030919 	20974 
566.13 	0.0030919 	21140 
566.63 	0.0030919 	20974 
567.13 	0.0030919 	20974 
567.63 	0.0029853 	20974 
568.13 	0.0029853 	20974 
568.63 	0.0029853 	20974 
569.13 	0.0029853 	20974 
569.63 	0.0028787 	20974 
570.13 	0.0028787 	20974 
570.63 	0.0028787 	20974 
571.13 	0.0028787 	20974 
571.63 	0.0028787 	20974 
572.13 	0.0028787 	20974 
572.63 	0.0027721 	20974 
573.13 	0.0027721 	20974 
573.63 	0.0026655 	20974 
574.13 	0.0026655 	20974 
574.63 	0.0025588 	20974 
575.13 	0.0025588 	20974 
575.63 	0.0024522 	20807 
576.13 	0.0024522 	20807 
576.63 	0.0023456 	20974 
577.13 	0.0023456 	20974 
577.63 	0.0022390 	20974 
578.13 	0.0022390 	20807 
578.63 	0.0021324 	20974 
579.13 	0.0021324 	20807 
579.63 	0.0020257 	20807 
580.13 	0.0020257 	20974 
580.63 	0.0019191 	20974 
581.13 	0.0019191 	20974 
581.63 	0.0019191 	20807 
582.13 	0.0018125 	20974 
582.63 	0.0018125 	20974 
583.13 	0.0018125 	20974 
583.63 	0.0018125 	21140 
584.13 	0.0017059 	20974 
584.63 	0.0017059 	20974 
585.13 	0.0015993 	20807 
585.63 	0.0017059 	21140 
586.13 	0.0015993 	20974 
586.63 	0.0015993 	20974 
587.13 	0.0015993 	20974 
587.63 	0.0014927 	20974 
588.13 	0.0014927 	20974 
588.63 	0.0013860 	20974 
589.13 	0.0013860 	20974 
589.63 	0.0012794 	20974 
590.13 	0.0013860 	20974 
590.63 	0.0013860 	20974 
591.13 	0.0012794 	20974 
591.63 	0.0012794 	20974 
592.13 	0.0012794 	20974 
592.33 	0.0012794 	20974 
592.83 	0.0011728 	20974 
593.33 	0.0012794 	20974 
593.83 	0.0011728 	20974 
594.33 	0.0011728 	20807 
594.83 	0.0010662 	20974 
595.33 	0.0010662 	20807 
595.83 	0.0010662 	20974 
596.33 	0.0010662 	20974 
596.83 	0.0010662 	20974 
597.33 	0.0010662 	20807 
597.83 	0.0010662 	20807 
598.33 	0.0010662 	20974 
598.83 	0.0010662 	20974 
599.33 	0.0010662 	20974 
599.83 	0.0010662 	20974 
600.33 	0.0010662 	20807 
600.83 	0.0010662 	20974 
601.33 	0.0011728 	20807 
601.83 	0.0011728 	20974 
602.33 	0.0011728 	20974 
602.83 	0.0011728 	20974 
603.33 	0.0011728 	20974 
603.83 	0.0011728 	20974 
604.33 	0.0011728 	20974 
604.83 	0.0012794 	20974 
605.33 	0.0012794 	20974 
605.83 	0.0012794 	20974 
606.33 	0.0012794 	20974 
606.83 	0.0012794 	20974 
607.33 	0.0012794 	20974 
607.83 	0.0013860 	20974 
608.33 	0.0014927 	20974 
608.83 	0.0014927 	20974 
609.33 	0.0015993 	20974 
609.83 	0.0015993 	20974 
610.33 	0.0015993 	21140 
610.83 	0.0017059 	20974 
611.33 	0.0018125 	20974 
611.83 	0.0018125 	20974 
612.33 	0.0018125 	20807 
612.83 	0.0015993 	20974 
613.33 	0.0014927 	20974 
613.83 	0.0013860 	20974 
614.33 	0.0012794 	20974 
614.83 	0.0011728 	20974 
615.33 	0.0011728 	20974 
615.83 	0.0010662 	20974 
616.33 	0.0010662 	20807 
616.83 	0.00095956 	20974 
617.33 	0.00095956 	20974 
617.83 	0.00095956 	20807 
618.33 	0.00095956 	20807 
618.83 	0.00095956 	20974 
619.33 	0.00095956 	20974 
619.83 	0.00085294 	20974 
620.33 	0.00095956 	20974 
620.83 	0.00095956 	20974 
621.33 	0.00095956 	20807 
621.83 	0.00085294 	20974 
622.33 	0.00085294 	20974 
622.83 	0.00085294 	20974 
623.33 	0.00085294 	20974 
623.83 	0.00085294 	20974 
624.33 	0.00085294 	20974 
624.83 	0.00085294 	20974 
625.33 	0.00085294 	20974 
625.83 	0.00085294 	20974 
626.33 	0.00085294 	20974 
626.83 	0.00085294 	20974 
627.33 	0.00085294 	20974 
627.83 	0.00085294 	20974 
628.33 	0.00085294 	20974 
628.83 	0.00085294 	20974 
629.33 	0.00085294 	20974 
629.83 	0.00085294 	20974 
630.33 	0.00085294 	21140 
630.83 	0.00085294 	20974 
631.33 	0.00085294 	20974 
631.83 	0.00085294 	20974 
632.33 	0.00085294 	20974 
632.83 	0.00085294 	20974 
633.33 	0.00085294 	20974 
633.83 	0.00085294 	21140 
634.33 	0.00085294 	20974 
634.83 	0.00085294 	20974 
635.33 	0.00085294 	20807 
635.83 	0.00085294 	20807 
636.33 	0.00085294 	20974 
636.83 	0.00085294 	20974 
637.33 	0.00085294 	20974 
637.83 	0.00085294 	20974 
638.33 	0.00085294 	20974 
638.83 	0.00085294 	20974 
639.33 	0.00085294 	20974 
639.83 	0.00085294 	21140 
640.33 	0.00085294 	21140 
640.83 	0.00085294 	20974 
641.33 	0.00085294 	20974 
641.83 	0.00085294 	20974 
642.33 	0.00085294 	20807 
642.83 	0.00085294 	20974 
643.33 	0.00085294 	21140 
643.83 	0.00085294 	21140 
644.33 	0.00085294 	20974 
644.83 	0.00085294 	20807 
645.33 	0.00085294 	20974 
645.83 	0.00085294 	20974 
646.33 	0.00085294 	21140 
646.83 	0.00085294 	20974 
647.33 	0.00085294 	20807 
647.83 	0.00085294 	20974 
648.33 	0.00085294 	20974 
648.83 	0.00085294 	20807 
649.33 	0.00085294 	21140 
649.83 	0.00085294 	20974 
650.33 	0.00085294 	20974 
650.83 	0.00085294 	20807 
651.33 	0.00085294 	20807 
651.83 	0.00085294 	20974 
652.33 	0.00085294 	20974 
652.83 	0.00085294 	20974 
653.33 	0.00085294 	20974 
653.83 	0.00085294 	20974 
654.33 	0.00085294 	20807 
654.83 	0.00085294 	20974 
655.33 	0.00085294 	20974 
655.83 	0.00085294 	20974 
656.33 	0.00085294 	20974 
656.83 	0.00085294 	20974 
657.33 	0.00085294 	20974 
657.83 	0.00085294 	20974 
658.33 	0.00085294 	20974 
658.83 	0.00085294 	20974 
659.33 	0.00085294 	20974 
659.83 	0.00085294 	20974 
660.33 	0.00085294 	20807 
660.83 	0.00085294 	20974 
661.33 	0.00085294 	20974 
661.83 	0.00085294 	21140 
662.33 	0.00085294 	20974 
662.83 	0.00085294 	20974 
663.33 	0.00085294 	20974 
663.83 	0.00085294 	20974 
664.33 	0.00085294 	20974 
664.83 	0.00085294 	20974 
665.33 	0.00085294 	20974 
665.83 	0.00085294 	20974 
666.33 	0.00085294 	20974 
666.83 	0.00085294 	20974 
667.33 	0.00085294 	20974 
667.83 	0.00085294 	20974 
668.33 	0.00085294 	20974 
668.83 	0.00085294 	21140 
669.33 	0.00085294 	20974 
669.83 	0.00085294 	20974 
670.33 	0.00085294 	20974 
670.83 	0.00085294 	20974 
671.33 	0.00085294 	21140 
671.83 	0.00085294 	20974 
672.33 	0.00085294 	20974 
672.83 	0.00085294 	20974 
673.33 	0.00085294 	20974 
673.83 	0.00085294 	20974 
674.33 	0.00085294 	20974 
674.83 	0.00085294 	20974 
675.33 	0.00085294 	20974 
675.83 	0.00085294 	20974 
676.33 	0.00085294 	20974 
676.83 	0.00085294 	21140 
677.33 	0.00085294 	20974 
677.83 	0.00085294 	20807 
678.33 	0.00085294 	20807 
678.83 	0.00085294 	20974 
679.33 	0.00085294 	20974 
679.83 	0.00085294 	20974 
680.33 	0.00085294 	20974 
680.83 	0.00085294 	20974 
681.33 	0.00085294 	20974 
681.83 	0.00085294 	21140 
682.33 	0.00085294 	20974 
682.83 	0.00085294 	20974 
683.33 	0.00085294 	20974 
683.83 	0.00085294 	20974 
684.33 	0.00085294 	20974 
684.83 	0.00085294 	20974 
685.33 	0.00085294 	21140 
685.83 	0.00085294 	20974 
686.33 	0.00085294 	20974 
686.83 	0.00085294 	20974 
687.33 	0.00085294 	20974 
687.83 	0.00085294 	20974 
688.33 	0.00085294 	20974 
688.83 	0.00085294 	20974 
689.33 	0.00085294 	20974 
689.83 	0.00085294 	20974 
690.33 	0.00085294 	20974 
690.83 	0.00085294 	20974 
691.33 	0.00085294 	20974 
691.83 	0.00085294 	20974 
692.33 	0.00085294 	20974 
692.83 	0.00085294 	20974 
693.33 	0.00085294 	20974 
693.83 	0.00085294 	20974 
694.33 	0.00085294 	20974 
694.83 	0.00085294 	20974 
695.33 	0.00085294 	20974 
695.83 	0.00085294 	20807 
696.33 	0.00085294 	20974 
696.83 	0.00085294 	20974 
697.33 	0.00085294 	21140 
697.83 	0.00085294 	21140 
698.33 	0.00085294 	21473 
698.83 	0.00085294 	21972 
699.20 	0.00085294 	22638 
699.70 	0.00085294 	22971 
700.20 	0.00085294 	23470 
700.70 	0.00085294 	23970 
701.20 	0.00085294 	24469 
701.68 	0.00085294 	25135 
702.18 	0.00085294 	25468 
702.68 	0.00085294 	26134 
703.18 	0.00085294 	26633 
703.68 	0.00085294 	27132 
704.18 	0.00085294 	27632 
704.68 	0.00085294 	28131 
705.18 	0.00085294 	28464 
705.68 	0.00085294 	28963 
706.18 	0.00085294 	29629 
706.68 	0.00085294 	29962 
707.18 	0.00085294 	30462 
707.68 	0.00085294 	30795 
708.18 	0.00085294 	31294 
708.65 	0.00085294 	31960 
709.05 	0.00085294 	32626 
709.52 	0.00085294 	33291 
710.02 	0.00085294 	33791 
710.52 	0.00085294 	34290 
711.00 	0.00085294 	34956 
711.50 	0.00085294 	35455 
712.00 	0.00085294 	35955 
712.50 	0.00085294 	36454 
713.00 	0.00085294 	36953 
713.45 	0.00085294 	37619 
713.95 	0.00085294 	37952 
714.45 	0.00085294 	38452 
714.90 	0.00085294 	39117 
715.40 	0.00085294 	39617 
715.90 	0.00085294 	39950 
716.37 	0.00085294 	40615 
716.87 	0.00085294 	41115 
717.37 	0.00085294 	41614 
717.87 	0.00085294 	42114 
718.37 	0.00085294 	42613 
718.87 	0.00085294 	43112 
719.35 	0.00085294 	43778 
719.85 	0.00085294 	44278 
720.35 	0.00085294 	44777 
720.85 	0.00085294 	45276 
721.35 	0.00085294 	45776 
721.85 	0.00085294 	46275 
722.32 	0.00085294 	46941 
722.82 	0.00085294 	47274 
723.27 	0.00085294 	47940 
723.77 	0.00085294 	48272 
724.27 	0.00085294 	48772 
724.72 	0.00085294 	49438 
725.22 	0.00085294 	49771 
725.70 	0.00085294 	50436 
726.20 	0.00085294 	50936 
726.70 	0.00085294 	51435 
727.20 	0.00085294 	51935 
727.70 	0.00085294 	52434 
728.20 	0.00085294 	52933 
728.65 	0.00085294 	53599 
729.15 	0.00085294 	53932 
729.63 	0.00085294 	54598 
730.13 	0.00085294 	55097 
730.63 	0.00085294 	55430 
731.07 	0.00085294 	56096 
731.57 	0.00085294 	56429 
732.00 	0.00085294 	57095 
732.50 	0.00085294 	57428 
732.93 	0.00085294 	58093 
733.43 	0.00085294 	58593 
733.93 	0.00085294 	58926 
734.37 	0.00085294 	59592 
734.87 	0.00085294 	60091 
735.37 	0.00085294 	60590 
735.87 	0.00085294 	61090 
736.37 	0.00085294 	61589 
736.87 	0.00085294 	62088 
737.37 	0.00085294 	62754 
737.87 	0.00085294 	63254 
738.37 	0.00085294 	63753 
738.87 	0.00085294 	64252 
739.37 	0.00085294 	64752 
739.87 	0.00085294 	65251 
740.37 	0.00085294 	65750 
740.87 	0.00085294 	66250 
741.37 	0.00085294 	66749 
741.82 	0.00085294 	67415 
742.32 	0.00085294 	67914 
742.82 	0.00085294 	68414 
743.32 	0.00085294 	68913 
743.82 	0.00085294 	69412 
744.32 	0.00085294 	69912 
744.78 	0.00085294 	70578 
745.28 	0.00085294 	70911 
745.77 	0.00085294 	71576 
746.27 	0.00085294 	72076 
746.77 	0.00085294 	72575 
747.27 	0.00085294 	73075 
747.77 	0.00085294 	73574 
748.27 	0.00085294 	74073 
748.72 	0.00085294 	74739 
749.22 	0.00085294 	75072 
749.72 	0.00085294 	75738 
750.22 	0.00085294 	76071 
750.65 	0.00085294 	76737 
751.15 	0.00085294 	77069 
751.60 	0.00085294 	77735 
752.10 	0.00085294 	78068 
752.57 	0.00085294 	78734 
753.07 	0.00085294 	79233 
753.57 	0.00085294 	79733 
754.07 	0.00085294 	80232 
754.57 	0.00085294 	80732 
755.07 	0.00085294 	81231 
755.57 	0.00085294 	81730 
756.07 	0.00085294 	82230 
756.55 	0.00085294 	82895 
757.05 	0.00085294 	83228 
757.52 	0.00085294 	83894 
758.02 	0.00085294 	84227 
758.35 	0.00085294 	84893 
758.85 	0.00085294 	85226 
759.35 	0.00085294 	85725 
759.85 	0.00085294 	86391 
760.35 	0.00085294 	86724 
760.75 	0.00085294 	87390 
761.25 	0.00085294 	87723 
761.75 	0.00085294 	88389 
762.25 	0.00085294 	88888 
762.75 	0.00085294 	89387 
763.25 	0.00085294 	89887 
763.75 	0.00085294 	90386 
764.25 	0.00085294 	90885 
764.75 	0.00085294 	91385 
765.25 	0.00085294 	92051 
765.75 	0.00085294 	92384 
766.22 	0.00085294 	93049 
766.72 	0.00085294 	93549 
767.22 	0.00085294 	94048 
767.72 	0.00085294 	94547 
768.22 	0.00085294 	95047 
768.72 	0.00085294 	95546 
769.22 	0.00085294 	96212 
769.72 	0.00085294 	96545 
770.15 	0.00085294 	97211 
770.65 	0.00085294 	97710 
771.15 	0.00085294 	98209 
771.65 	0.00085294 	98709 
772.15 	0.00085294 	99208 
772.65 	0.00085294 	99708 
773.15 	0.00085294 	100370 
773.65 	0.00085294 	100870 
774.15 	0.00085294 	101370 
774.65 	0.00085294 	101870 
775.15 	0.00085294 	102370 
775.65 	0.00085294 	102870 
776.15 	0.00085294 	103370 
776.65 	0.00085294 	103870 
777.08 	0.00085294 	104530 
777.58 	0.00085294 	104870 
778.05 	0.00085294 	105530 
778.55 	0.00085294 	106030 
779.05 	0.00085294 	106530 
779.55 	0.00085294 	107030 
780.05 	0.00085294 	107530 
780.55 	0.00085294 	108030 
781.05 	0.00085294 	108530 
781.55 	0.00085294 	109200 
782.05 	0.00085294 	109700 
782.55 	0.00085294 	110190 
783.05 	0.00085294 	110690 
783.55 	0.00085294 	111190 
784.05 	0.00085294 	111690 
784.55 	0.00085294 	112190 
785.03 	0.00085294 	112860 
785.53 	0.00085294 	113190 
785.97 	0.00085294 	113860 
786.47 	0.00085294 	114190 
786.97 	0.00085294 	114860 
787.47 	0.00085294 	115190 
787.87 	0.00085294 	115850 
788.37 	0.00085294 	116190 
788.87 	0.00085294 	116690 
789.30 	0.00085294 	117350 
789.80 	0.00085294 	117680 
790.27 	0.00085294 	118350 
790.77 	0.00085294 	118680 
791.23 	0.00085294 	119350 
791.73 	0.00085294 	119850 
792.23 	0.00085294 	120350 
792.73 	0.00085294 	120850 
793.23 	0.00085294 	121350 
793.73 	0.00085294 	121850 
794.23 	0.00085294 	122510 
794.73 	0.00085294 	123010 
795.23 	0.00085294 	123510 
795.73 	0.00085294 	124010 
796.23 	0.00085294 	124510 
796.73 	0.00085294 	125010 
797.23 	0.00085294 	125510 
797.70 	0.00085294 	126170 
798.20 	0.00085294 	126510 
798.63 	0.00085294 	127170 
799.13 	0.00085294 	127510 
799.55 	0.00085294 	128170 
800.05 	0.00085294 	128500 
800.55 	0.00085294 	129000 
801.05 	0.00085294 	129670 
801.55 	0.00085294 	130000 
802.05 	0.00085294 	130670 
802.55 	0.00085294 	131170 
803.05 	0.00085294 	131670 
803.55 	0.00085294 	132330 
804.05 	0.00085294 	132830 
804.55 	0.00085294 	133170 
805.05 	0.00085294 	133660 
805.55 	0.00085294 	134330 
806.05 	0.00085294 	134830 
806.55 	0.00085294 	135330 
807.05 	0.00085294 	135830 
807.55 	0.00085294 	136490 
808.05 	0.00085294 	136990 
808.55 	0.00085294 	137490 
809.05 	0.00085294 	137990 
809.55 	0.00085294 	138490 
810.05 	0.00085294 	139160 
810.55 	0.00085294 	139490 
811.05 	0.00085294 	140160 
811.55 	0.00085294 	140660 
812.05 	0.00085294 	141160 
812.55 	0.00085294 	141650 
813.05 	0.00085294 	142320 
813.55 	0.00085294 	142650 
814.05 	0.00085294 	143150 
814.55 	0.00085294 	143820 
815.05 	0.00085294 	144320 
815.55 	0.00085294 	144820 
816.05 	0.00085294 	145320 
816.55 	0.00085294 	145820 
817.05 	0.00085294 	146320 
817.55 	0.00085294 	146980 
818.05 	0.00085294 	147310 
818.55 	0.00085294 	147980 
819.05 	0.00085294 	148480 
819.55 	0.00085294 	148980 
820.05 	0.00085294 	149480 
820.55 	0.00085294 	149980 
821.05 	0.00085294 	150640 
821.55 	0.00085294 	151140 
822.05 	0.00085294 	151640 
822.55 	0.00085294 	152140 
823.05 	0.00085294 	152640 
823.55 	0.00085294 	153140 
824.05 	0.00085294 	153810 
824.55 	0.00085294 	154310 
825.05 	0.00085294 	154800 
825.55 	0.00085294 	155300 
826.05 	0.00085294 	155800 
826.55 	0.00085294 	156300 
827.05 	0.00085294 	156800 
827.55 	0.00085294 	157470 
828.05 	0.00085294 	157970 
828.55 	0.00085294 	158470 
829.05 	0.00085294 	158970 
829.55 	0.00085294 	159470 
830.05 	0.00085294 	160130 
830.55 	0.00085294 	160630 
831.05 	0.00085294 	161130 
831.55 	0.00085294 	161630 
832.05 	0.00085294 	162130 
832.55 	0.00085294 	162630 
833.05 	0.00085294 	163130 
833.55 	0.00085294 	163630 
834.05 	0.00085294 	164130 
834.55 	0.00085294 	164790 
835.05 	0.00085294 	165290 
835.55 	0.00085294 	165790 
836.05 	0.00085294 	166290 
836.55 	0.00085294 	166790 
837.05 	0.00085294 	167460 
837.55 	0.00085294 	167950 
838.05 	0.00085294 	168450 
838.55 	0.00085294 	169120 
839.05 	0.00085294 	169620 
839.55 	0.00085294 	169950 
840.05 	0.00085294 	170450 
840.55 	0.00085294 	171120 
841.05 	0.00085294 	171620 
841.55 	0.00085294 	172120 
842.05 	0.00085294 	172620 
842.55 	0.00085294 	173120 
843.05 	0.00085294 	173780 
843.55 	0.00085294 	174110 
844.05 	0.00085294 	174780 
844.55 	0.00085294 	175280 
845.05 	0.00085294 	175780 
845.55 	0.00085294 	176280 
846.05 	0.00085294 	176780 
846.55 	0.00085294 	177440 
847.05 	0.00085294 	177940 
847.55 	0.00085294 	178440 
848.05 	0.00085294 	178940 
848.55 	0.00085294 	179440 
849.05 	0.00085294 	179940 
849.55 	0.00085294 	180440 
850.05 	0.00085294 	180610 
850.55 	0.00085294 	181440 
851.05 	0.00085294 	181940 
851.55 	0.00085294 	182600 
852.05 	0.00085294 	183100 
852.55 	0.00085294 	183600 
853.05 	0.00085294 	184270 
853.55 	0.00085294 	184770 
854.05 	0.00085294 	185270 
854.55 	0.00085294 	185770 
855.05 	0.00085294 	186270 
855.55 	0.00085294 	186930 
856.05 	0.00085294 	187260 
856.55 	0.00085294 	187930 
857.05 	0.00085294 	188260 
857.55 	0.00085294 	188930 
858.05 	0.00085294 	189430 
858.55 	0.00085294 	190090 
859.05 	0.00085294 	190430 
859.55 	0.00085294 	190930 
860.05 	0.00085294 	191590 
860.55 	0.00085294 	192090 
861.05 	0.00085294 	192590 
861.55 	0.00085294 	193090 
862.05 	0.00085294 	193590 
862.55 	0.00085294 	194090 
863.05 	0.00085294 	194750 
863.55 	0.00085294 	195250 
864.05 	0.00085294 	195750 
864.55 	0.00085294 	196250 
865.05 	0.00085294 	196920 
865.55 	0.00085294 	197250 
866.05 	0.00085294 	197920 
866.55 	0.00085294 	198420 
867.05 	0.00085294 	198920 
867.55 	0.00085294 	199420 
868.05 	0.00085294 	199910 
868.55 	0.00085294 	200410 
869.05 	0.00085294 	201080 
869.55 	0.00085294 	201580 
870.05 	0.00085294 	202080 
870.55 	0.00085294 	202580 
871.05 	0.00085294 	203080 
871.55 	0.00085294 	203580 
872.05 	0.00085294 	204080 
872.55 	0.00085294 	204580 
873.05 	0.00085294 	205240 
873.55 	0.00085294 	205740 
874.05 	0.00085294 	206240 
874.55 	0.00085294 	206570 
875.05 	0.00085294 	207070 
875.55 	0.00085294 	207740 
876.05 	0.00085294 	208240 
876.55 	0.00085294 	208740 
877.05 	0.00085294 	209240 
877.55 	0.00085294 	209900 
878.05 	0.00085294 	210400 
878.55 	0.00085294 	210900 
879.05 	0.00085294 	211400 
879.55 	0.00085294 	211900 
880.05 	0.00085294 	212570 
880.55 	0.00085294 	213060 
881.05 	0.00085294 	213560 
881.55 	0.00085294 	214060 
882.05 	0.00085294 	214560 
882.55 	0.00085294 	215060 
883.05 	0.00085294 	215730 
883.55 	0.00085294 	216230 
884.05 	0.00085294 	216560 
884.55 	0.00085294 	217230 
885.05 	0.00085294 	217730 
885.55 	0.00085294 	218220 
886.05 	0.00085294 	218720 
886.55 	0.00085294 	219390 
887.05 	0.00085294 	219890 
887.55 	0.00085294 	220390 
888.05 	0.00085294 	220890 
888.55 	0.00085294 	221390 
889.05 	0.00085294 	221890 
889.55 	0.00085294 	222550 
890.05 	0.00085294 	222890 
890.55 	0.00085294 	223720 
891.05 	0.00085294 	224050 
891.55 	0.00085294 	224550 
892.05 	0.00085294 	225220 
892.55 	0.00085294 	225550 
893.05 	0.00085294 	226210 
893.55 	0.00085294 	226710 
894.05 	0.00085294 	227210 
894.55 	0.00085294 	227710 
895.05 	0.00085294 	228210 
895.55 	0.00085294 	228710 
896.05 	0.00085294 	229380 
896.55 	0.00085294 	229710 
897.05 	0.00085294 	230380 
897.55 	0.00085294 	230880 
898.05 	0.00085294 	231370 
898.55 	0.00085294 	231870 
899.05 	0.00085294 	232370 
899.55 	0.00085294 	233040 
900.05 	0.00085294 	233540 
900.55 	0.00085294 	234040 
901.05 	0.00085294 	234540 
901.55 	0.00085294 	235040 
902.05 	0.00085294 	235540 
902.55 	0.00085294 	236200 
903.05 	0.00085294 	236540 
903.55 	0.00085294 	236870 
903.67 	0.00085294 	234370 
903.68 	0.00085294 	231870 
903.77 	0.00085294 	224720 
903.78 	0.00085294 	219060 
903.82 	0.00085294 	222220 
903.93 	0.00085294 	223880 
903.98 	0.00085294 	225880 
904.03 	0.00085294 	227550 
904.08 	0.00085294 	229210 
904.20 	0.00085294 	230880 
904.30 	0.00085294 	232540 
904.40 	0.00085294 	229380 
904.43 	0.00085294 	227550 
904.45 	0.00085294 	224380 
904.47 	0.00085294 	221050 
904.50 	0.00085294 	222720 
904.65 	0.00085294 	224380 
904.77 	0.00085294 	218720 
904.78 	0.00085294 	169620 
904.80 	0.00085294 	86058 
